,Sample Index, EXG Channel 0, EXG Channel 1, EXG Channel 2, EXG Channel 3, EXG Channel 4, EXG Channel 5, EXG Channel 6, EXG Channel 7, EXG Channel 8, EXG Channel 9, EXG Channel 10, EXG Channel 11, EXG Channel 12, EXG Channel 13, EXG Channel 14, EXG Channel 15, Accel Channel 0, Accel Channel 1, Accel Channel 2, Other, Other.1, Other.2, Other.3, Other.4, Other.5, Other.6, Analog Channel 0, Analog Channel 1, Analog Channel 2, Timestamp, Other.7, Timestamp (Formatted)
0,0.0,84500.83696852172,110186.70173724912,0.0,-187500.02235174447,-43178.58584863971,-52989.99583601902,-53306.585944484,-56436.9701071942,0.0,0.0,0.0,0.0,0.0,0.0,0.0,0.0,0.099,0.465,0.11,192.0,3.0,24.0,14.5,8.0,3.0,112.0,0.0,0.0,0.0,1647985901.830235,0.0, 2022-03-22 22:51:41.830
1,96.0,85685.59118337526,91366.309388436,0.0,-187500.02235174447,-43977.101919305554,-52920.99600088549,-53481.35423438004,-55131.24825134853,-53766.60719711867,187500.0,-22929.02295935428,-47041.727249828255,-54314.806081629526,-62272.47414260795,0.0,-24385.082648406347,0.099,0.465,0.11,192.0,0.0,0.0,0.0,0.0,0.0,0.0,0.0,0.0,0.0,1647985901.830244,0.0, 2022-03-22 22:51:41.830
2,98.0,84915.17125548974,95498.31992367744,0.0,-187500.02235174447,-42544.735079376114,-52360.70482262431,-52685.67683526002,-55933.18413891603,-52834.87472949919,187500.0,-22086.161027689104,-46060.68683394037,-53464.83629522757,-61422.37024573926,0.0,-24125.265970857858,0.099,0.465,0.11,192.0,0.0,0.0,0.0,0.0,0.0,0.0,0.0,0.0,0.0,1647985901.830246,0.0, 2022-03-22 22:51:41.830
3,0.0,42979.14123286501,55477.38736598341,0.0,-93750.01117587223,-21561.63264055641,-26232.789603804304,-24722.07989955901,-27110.117925419563,-26952.783996198657,93749.98882412778,-11643.940108292116,-23562.00201058412,-27333.59066648372,-31268.01178074024,0.0,-12333.089093338143,0.212,0.936,0.216,192.0,3.0,80.0,14.5,32.0,3.0,96.0,0.0,0.0,0.0,1647985901.906996,0.0, 2022-03-22 22:51:41.906
4,2.0,86554.67171128652,89243.58656925996,0.0,-187500.02235174447,-42252.46366887852,-51606.75813040235,-48570.69832929353,-53522.12381626652,-52535.62957473154,187500.0,-21864.029391292264,-43847.90883635388,-52943.28069010743,-60430.265716346,0.0,-23931.342235963613,0.212,0.936,0.216,192.0,0.0,0.0,0.0,0.0,0.0,0.0,0.0,0.0,0.0,1647985901.913156,0.0, 2022-03-22 22:51:41.913
5,4.0,85412.38581089805,110751.08328474562,0.0,-187500.02235174447,-41732.56209284808,-51846.74881061898,-48601.14140524166,-54753.48141830938,-52112.77927312604,187500.0,-21868.097408783127,-43342.111211074734,-52960.8491612493,-60287.48277276549,0.0,-24253.74379798696,0.212,0.936,0.216,192.0,0.0,0.0,0.0,0.0,0.0,0.0,0.0,0.0,0.0,1647985901.92098,0.0, 2022-03-22 22:51:41.920
6,6.0,86321.09598172856,101029.05792344308,0.0,-187500.02235174447,-42964.970226880345,-52190.13866068586,-49183.22553434677,-53814.43993025302,-52930.115512623255,187500.0,-22494.28152969856,-44201.96046852595,-53579.858372194576,-60950.65903075445,0.0,-24335.23825827101,0.212,0.936,0.216,192.0,0.0,0.0,0.0,0.0,0.0,0.0,0.0,0.0,0.0,1647985901.929131,0.0, 2022-03-22 22:51:41.929
7,8.0,85995.051085359,95534.46269446168,0.0,-187500.02235174447,-41411.83691165887,-51363.9734821288,-48167.00347268623,-54117.59664030036,-52067.00290048157,187500.0,-21491.00112807764,-43349.55434197836,-52557.422525575465,-60036.74090346586,0.0,-23868.176206132917,0.208,0.926,0.206,192.0,3.0,64.0,14.0,120.0,3.0,56.0,0.0,0.0,0.0,1647985901.935703,0.0, 2022-03-22 22:51:41.935
8,10.0,85608.79058942683,114427.6099714768,0.0,-187500.02235174447,-42717.71522971574,-52399.619209721,-49284.2330675403,-54604.797614192685,-52628.21050026542,187500.0,-22456.79765424701,-43844.82429561905,-53552.991575359294,-60825.19868912682,0.0,-24525.786879752504,0.208,0.926,0.206,192.0,0.0,0.0,0.0,0.0,0.0,0.0,0.0,0.0,0.0,1647985901.943508,0.0, 2022-03-22 22:51:41.943
9,12.0,86560.97490322292,89257.9140374558,0.0,-187500.02235174447,-42266.90289579664,-51624.08073235521,-48602.28134420888,-53534.84195886159,-52565.26798787928,187500.0,-21883.721278157387,-43868.94182788632,-52973.321434655365,-60457.110161436816,0.0,-23932.817451097664,0.208,0.926,0.206,192.0,0.0,0.0,0.0,0.0,0.0,0.0,0.0,0.0,0.0,1647985901.958718,0.0, 2022-03-22 22:51:41.958
10,14.0,85418.08550573415,110623.70069309484,0.0,-187500.02235174447,-41721.16270317587,-51849.74394437599,-48615.53592867088,-54762.422116091504,-52110.05236030249,187500.0,-21851.84769056412,-43331.49413245847,-52956.28940538042,-60277.44683950506,0.0,-24246.099501383247,0.208,0.926,0.206,192.0,0.0,0.0,0.0,0.0,0.0,0.0,0.0,0.0,0.0,1647985901.965959,0.0, 2022-03-22 22:51:41.965
11,16.0,86312.73642930227,101224.18865253792,0.0,-187500.02235174447,-42969.26176181576,-52200.64398057985,-49216.26141265171,-53829.39324729362,-52938.40800981617,187500.0,-22488.961814518192,-44208.17425348452,-53592.8000322342,-60961.924309959926,0.0,-24339.1945170396,0.208,0.926,0.206,192.0,0.0,0.0,0.0,0.0,0.0,0.0,0.0,0.0,0.0,1647985901.974578,0.0, 2022-03-22 22:51:41.974
12,18.0,85988.45732074468,95419.86530063931,0.0,-187500.02235174447,-41430.43356304569,-51371.349557799054,-48202.56509811463,-54124.14570142576,-52091.634522871325,187500.0,-21489.481209454683,-43368.73213872101,-52584.065804966194,-60048.766141982815,0.0,-23865.24812760927,0.216,0.932,0.206,192.0,3.0,96.0,14.5,16.0,3.0,56.0,0.0,0.0,0.0,1647985901.981455,0.0, 2022-03-22 22:51:41.981
13,20.0,85609.32703129375,114569.58825225692,0.0,-187500.02235174447,-42695.49759572716,-52381.98368334576,-49269.54797143316,-54600.30491355717,-52634.93837534647,187500.0,-22444.258325607578,-43850.59104568852,-53553.86329339306,-60825.01987517117,0.0,-24524.33401636291,0.216,0.932,0.206,192.0,0.0,0.0,0.0,0.0,0.0,0.0,0.0,0.0,0.0,1647985901.987993,0.0, 2022-03-22 22:51:41.987
14,22.0,86566.16050793654,89313.10049451597,0.0,-187500.02235174447,-42266.20999171853,-51618.67161019702,-48601.81195757532,-53519.55336565416,-52571.83940074914,187500.0,-21870.24317625084,-43876.027330878656,-52958.3010623814,-60450.33758286687,0.0,-23936.39373021051,0.216,0.932,0.206,192.0,0.0,0.0,0.0,0.0,0.0,0.0,0.0,0.0,0.0,1647985901.996104,0.0, 2022-03-22 22:51:41.996
15,24.0,85417.72787782286,110504.02945328112,0.0,-187500.02235174447,-41709.47274082575,-51845.5418164184,-48608.85275707874,-54755.62718577709,-52110.83467135843,187500.0,-21834.07805372215,-43342.15591456365,-52946.14171339771,-60272.44004874707,0.0,-24239.55044025784,0.216,0.932,0.206,192.0,0.0,0.0,0.0,0.0,0.0,0.0,0.0,0.0,0.0,1647985902.003837,0.0, 2022-03-22 22:51:42.003
16,26.0,86312.91524325791,101371.37488977613,0.0,-187500.02235174447,-42948.09465981658,-52206.5224893716,-49206.672514280384,-53829.95204090501,-52935.1446551257,187500.0,-22481.764552803583,-44218.54546291178,-53593.71645375687,-60961.387868093,0.0,-24338.5463164504,0.216,0.932,0.206,192.0,0.0,0.0,0.0,0.0,0.0,0.0,0.0,0.0,0.0,1647985902.011165,0.0, 2022-03-22 22:51:42.011
17,28.0,85995.27460280355,95239.28555718488,0.0,-187500.02235174447,-41416.84370241687,-51368.86851416451,-48195.12196721101,-54109.03592217397,-52086.35951117987,187500.0,-21480.58521516147,-43392.42498784363,-52580.288360153245,-60059.472627576906,0.0,-23862.38710431899,0.214,0.93,0.214,192.0,3.0,88.0,14.5,8.0,3.0,88.0,0.0,0.0,0.0,1647985902.017489,0.0, 2022-03-22 22:51:42.017
18,30.0,85591.37858049615,114640.7115031137,0.0,-187500.02235174447,-42677.28092399608,-52388.68920668235,-49272.16312553443,-54609.87146018404,-52621.41556995101,187500.0,-22441.30789533948,-43868.472441252765,-53548.05183983468,-60831.56893629658,0.0,-24519.863667471847,0.214,0.93,0.214,192.0,0.0,0.0,0.0,0.0,0.0,0.0,0.0,0.0,0.0,1647985902.025601,0.0, 2022-03-22 22:51:42.025
19,32.0,86570.67556031652,89367.16936435335,0.0,-187500.02235174447,-42265.85236380725,-51626.51707250084,-48610.26091697942,-53520.29097322119,-52568.82191524768,187500.0,-21882.13430430106,-43907.38682834945,-52970.95214974311,-60473.762211056026,0.0,-23946.541422193222,0.214,0.93,0.214,192.0,0.0,0.0,0.0,0.0,0.0,0.0,0.0,0.0,0.0,1647985902.034132,0.0, 2022-03-22 22:51:42.034
20,34.0,85428.27790120577,110338.17950942271,0.0,-187500.02235174447,-41696.01699066365,-51831.77314183392,-48607.13167275568,-54750.26276710782,-52089.39934842579,187500.0,-21823.192754172414,-43346.98389136599,-52931.90365217968,-60267.41090624463,0.0,-24237.717597212508,0.214,0.93,0.214,192.0,0.0,0.0,0.0,0.0,0.0,0.0,0.0,0.0,0.0,1647985902.040661,0.0, 2022-03-22 22:51:42.040
21,36.0,86306.81321702161,101536.62133653418,0.0,-187500.02235174447,-42959.67286344444,-52214.50206214214,-49220.12826444248,-53838.244538097926,-52928.61794574475,187500.0,-22490.705250585703,-44225.072172292734,-53587.07798565364,-60967.40048735148,0.0,-24347.464662488062,0.214,0.93,0.214,192.0,0.0,0.0,0.0,0.0,0.0,0.0,0.0,0.0,0.0,1647985902.048269,0.0, 2022-03-22 22:51:42.048
22,38.0,86015.48057979114,95045.51828450184,0.0,-187500.02235174447,-41417.44719951716,-51366.34276704106,-48172.88198147798,-54091.6686167322,-52087.18652572472,187500.0,-21488.475380954194,-43399.91282223616,-52568.35252861411,-60064.97115671291,0.0,-23861.69420024088,0.204,0.92,0.212,192.0,3.0,48.0,14.0,96.0,3.0,80.0,0.0,0.0,0.0,1647985902.05616,0.0, 2022-03-22 22:51:42.056
23,40.0,85585.96945833796,114652.60263116391,0.0,-187500.02235174447,-42663.0205110336,-52398.50162249823,-49258.57326490561,-54624.26598361325,-52618.666305383005,187500.0,-22443.073683151448,-43864.82910690655,-53551.605767203066,-60831.36777059648,0.0,-24518.70137676017,0.204,0.92,0.212,192.0,0.0,0.0,0.0,0.0,0.0,0.0,0.0,0.0,0.0,1647985902.064344,0.0, 2022-03-22 22:51:42.064
24,42.0,86563.07596720172,89416.52201611067,0.0,-187500.02235174447,-42277.09529126827,-51639.01169765135,-48613.568975158814,-53514.72538885181,-52583.55171484372,187500.0,-21902.96613013341,-43924.57531983558,-52996.79076633343,-60495.35399619985,0.0,-23946.20614602639,0.204,0.92,0.212,192.0,0.0,0.0,0.0,0.0,0.0,0.0,0.0,0.0,0.0,1647985902.070287,0.0, 2022-03-22 22:51:42.070
25,44.0,85428.65788086152,110178.6551092452,0.0,-187500.02235174447,-41691.65840049487,-51824.95585977505,-48588.49031787996,-54737.90225242404,-52097.98241829663,187500.0,-21833.429853132948,-43354.89640890317,-52935.770503970445,-60273.44587724756,0.0,-24227.256980807422,0.204,0.92,0.212,192.0,0.0,0.0,0.0,0.0,0.0,0.0,0.0,0.0,0.0,1647985902.085916,0.0, 2022-03-22 22:51:42.085
26,46.0,86295.10090292704,101687.8532395188,0.0,-187500.02235174447,-42972.97215139534,-52202.87915502539,-49203.34210435655,-53823.6041454797,-52938.497416794,187500.0,-22507.111431015903,-44244.56289345776,-53611.28492489874,-60983.35963289257,0.0,-24347.10703457678,0.204,0.92,0.212,192.0,0.0,0.0,0.0,0.0,0.0,0.0,0.0,0.0,0.0,1647985902.092938,0.0, 2022-03-22 22:51:42.092
27,48.0,86019.9509286822,94859.73058458931,0.0,-187500.02235174447,-41419.21298732913,-51351.88118837848,-48173.03844368916,-54067.17110480918,-52090.31576994846,187500.0,-21494.06331706802,-43417.05661023338,-52574.65572055051,-60064.59117705717,0.0,-23850.697141968863,0.192,0.906,0.21,192.0,3.0,0.0,14.0,40.0,3.0,72.0,0.0,0.0,0.0,1647985902.100519,0.0, 2022-03-22 22:51:42.100
28,50.0,85581.0967780467,114664.82903538096,0.0,-187500.02235174447,-42654.01275801811,-52376.97689258777,-49235.03687799417,-54609.58088750612,-52604.18237497597,187500.0,-22441.1961366172,-43863.33154002804,-53535.378400728514,-60819.81191871309,0.0,-24510.85591445636,0.192,0.906,0.21,192.0,0.0,0.0,0.0,0.0,0.0,0.0,0.0,0.0,0.0,1647985902.108373,0.0, 2022-03-22 22:51:42.108
29,52.0,86564.55118233577,89476.13411857297,0.0,-187500.02235174447,-42290.50633794145,-51645.60546226567,-48594.59234411625,-53509.89741204947,-52574.20868566141,187500.0,-21910.47631627039,-43931.10202921653,-52989.79467031892,-60493.185876987685,0.0,-23948.195451282914,0.192,0.906,0.21,192.0,0.0,0.0,0.0,0.0,0.0,0.0,0.0,0.0,0.0,1647985902.117742,0.0, 2022-03-22 22:51:42.117
30,54.0,85422.60055811412,110025.05392134831,0.0,-187500.02235174447,-41689.22206034924,-51825.69346734208,-48565.55742806881,-54734.72830471138,-52092.41683392726,187500.0,-21837.94490551292,-43362.3842432957,-52908.81430015735,-60272.10477258024,0.0,-24220.70791968202,0.192,0.906,0.21,192.0,0.0,0.0,0.0,0.0,0.0,0.0,0.0,0.0,0.0,1647985902.123903,0.0, 2022-03-22 22:51:42.123
31,56.0,86289.02122843519,101871.6516341748,0.0,-187500.02235174447,-42957.52709597672,-52212.60216386344,-49187.89704893793,-53837.37282006417,-52934.85408244778,187500.0,-22518.041434054547,-44247.06628883675,-53611.32962838765,-60983.85137127058,0.0,-24350.750368923,0.192,0.906,0.21,192.0,0.0,0.0,0.0,0.0,0.0,0.0,0.0,0.0,0.0,1647985902.131066,0.0, 2022-03-22 22:51:42.131
32,58.0,86025.53886479604,94741.08752502054,0.0,-187500.02235174447,-41416.08374310538,-51353.53521746817,-48153.279501590674,-54063.17014255168,-52094.920229306255,187500.0,-21499.18186654829,-43430.66882260666,-52582.59058983214,-60074.31418589523,0.0,-23852.19470884737,0.191,0.915,0.212,192.0,2.5,120.0,14.0,112.0,3.0,88.0,0.0,0.0,0.0,1647985902.138242,0.0, 2022-03-22 22:51:42.138
33,60.0,85575.01710355487,114724.88817273238,0.0,-187500.02235174447,-42634.231464175165,-52369.98079657326,-49221.17879643188,-54616.75579747628,-52594.973456260384,187500.0,-22427.11453761036,-43865.611417962486,-53534.10435129456,-60816.99559891172,0.0,-24511.191190623187,0.191,0.915,0.212,192.0,0.0,0.0,0.0,0.0,0.0,0.0,0.0,0.0,0.0,1647985902.146073,0.0, 2022-03-22 22:51:42.146
34,62.0,86569.51326960484,89562.70242484838,0.0,-187500.02235174447,-42297.99417233398,-51646.56658727725,-48609.67977162359,-53505.65058060296,-52580.9589124869,187500.0,-21911.280979070783,-43946.90471254644,-52995.53906864394,-60502.46185093664,0.0,-23943.34512273611,0.191,0.915,0.212,192.0,0.0,0.0,0.0,0.0,0.0,0.0,0.0,0.0,0.0,1647985902.153123,0.0, 2022-03-22 22:51:42.153
35,64.0,85437.93385481047,109841.30023018124,0.0,-187500.02235174447,-41667.71968218323,-51820.239641694985,-48556.92965470906,-54728.13454009707,-52073.61901684034,187500.0,-21810.31814936616,-43357.42215602662,-52902.913439621145,-60261.35358349724,0.0,-24207.69920440903,0.191,0.915,0.212,192.0,0.0,0.0,0.0,0.0,0.0,0.0,0.0,0.0,0.0,1647985902.160723,0.0, 2022-03-22 22:51:42.160
36,66.0,86282.62862952097,102078.62878783094,0.0,-187500.02235174447,-42950.15102030648,-52219.978239533695,-49180.09629012302,-53846.626442268665,-52917.77734968393,187500.0,-22508.27372172758,-44247.80389640378,-53611.7543115323,-60984.81249628217,0.0,-24344.4471769866,0.191,0.915,0.212,192.0,0.0,0.0,0.0,0.0,0.0,0.0,0.0,0.0,0.0,1647985902.1687,0.0, 2022-03-22 22:51:42.168
37,68.0,86039.21813240268,94587.48633712369,0.0,-187500.02235174447,-41414.54147273797,-51341.62173767349,-48131.28538504665,-54046.58514816585,-52082.13503147782,187500.0,-21494.599758934943,-43440.68240412264,-52577.27087465178,-60074.917682995525,0.0,-23841.24235406427,0.1925,0.9215,0.218,192.0,3.0,8.0,14.5,0.0,3.5,0.0,0.0,0.0,0.0,1647985902.175901,0.0, 2022-03-22 22:51:42.175
38,70.0,85583.62252517015,114760.5392051386,0.0,-187500.02235174447,-42613.39963834282,-52346.71263059528,-49196.03308391966,-54611.03375089571,-52568.5089908253,187500.0,-22414.217581059645,-43856.849534136,-53523.10729302255,-60806.11029936199,0.0,-24500.88703642929,0.1925,0.9215,0.218,192.0,0.0,0.0,0.0,0.0,0.0,0.0,0.0,0.0,0.0,1647985902.183339,0.0, 2022-03-22 22:51:42.183
39,72.0,86584.55599362326,89610.04341960471,0.0,-187500.02235174447,-42293.97085833202,-51645.0913721432,-48588.400910902135,-53500.73319682279,-52553.22039761786,187500.0,-21902.697909199946,-43947.88818930247,-52992.6556936092,-60498.48324042359,0.0,-23946.87669836005,0.1925,0.9215,0.218,192.0,0.0,0.0,0.0,0.0,0.0,0.0,0.0,0.0,0.0,1647985902.192994,0.0, 2022-03-22 22:51:42.192
40,74.0,85446.1145932811,109620.91202985193,0.0,-187500.02235174447,-41649.01127207414,-51804.19108917607,-48526.64304097212,-54715.66226669101,-52045.142894404285,187500.0,-21797.868227704555,-43357.1315833487,-52886.10492779076,-60256.72677239499,0.0,-24201.038384561347,0.1925,0.9215,0.218,192.0,0.0,0.0,0.0,0.0,0.0,0.0,0.0,0.0,0.0,1647985902.206615,0.0, 2022-03-22 22:51:42.206
41,76.0,86280.68402775336,102245.79748461217,0.0,-187500.02235174447,-42951.49212497379,-52212.35629467444,-49178.26344707769,-53844.21245386749,-52894.531535450405,187500.0,-22511.671186884785,-44254.174143573546,-53614.36946563357,-60989.84163878461,0.0,-24355.44423525861,0.1925,0.9215,0.218,192.0,0.0,0.0,0.0,0.0,0.0,0.0,0.0,0.0,0.0,1647985902.213218,0.0, 2022-03-22 22:51:42.213
42,78.0,86056.13840295534,94451.7441930466,0.0,-187500.02235174447,-41411.076952347394,-51334.75975212571,-48134.63814671495,-54032.34708694781,-52048.45095258367,187500.0,-21485.10026754144,-43441.59882564531,-52564.53038031225,-60067.094572436166,0.0,-23844.595115732565,0.19525,0.92275,0.222,192.0,3.0,24.0,14.0,112.0,3.5,8.0,0.0,0.0,0.0,1647985902.221058,0.0, 2022-03-22 22:51:42.221
43,80.0,85572.91603957607,114817.33498779954,0.0,-187500.02235174447,-42608.88458596284,-52362.93999706984,-49196.88245020896,-54626.36704759205,-52553.801542973706,187500.0,-22420.92310439624,-43866.95252262981,-53530.46101694835,-60811.541773264624,0.0,-24502.585769007896,0.19525,0.92275,0.222,192.0,0.0,0.0,0.0,0.0,0.0,0.0,0.0,0.0,0.0,1647985902.228398,0.0, 2022-03-22 22:51:42.228
44,82.0,86593.65315361657,89710.2239382534,0.0,-187500.02235174447,-42285.70071288356,-51628.61813647964,-48573.022910716885,-53475.38631861047,-52542.69272597942,187500.0,-21913.71731921641,-43953.14084924947,-53006.42436819367,-60497.29859796746,0.0,-23947.97193383836,0.19525,0.92275,0.222,192.0,0.0,0.0,0.0,0.0,0.0,0.0,0.0,0.0,0.0,1647985902.235765,0.0, 2022-03-22 22:51:42.235
45,84.0,85455.85995386362,109472.92112981332,0.0,-187500.02235174447,-41639.04239404707,-51786.10852791173,-48534.60026199821,-54708.77792939877,-52025.830987194895,187500.0,-21793.576692769133,-43352.10244084626,-52892.51987844943,-60237.92895530808,0.0,-24192.768239112884,0.19525,0.92275,0.222,192.0,0.0,0.0,0.0,0.0,0.0,0.0,0.0,0.0,0.0,1647985902.243656,0.0, 2022-03-22 22:51:42.243
46,86.0,86290.51879531369,102434.49091130387,0.0,-187500.02235174447,-42945.054822570666,-52211.64103885186,-49165.366490526976,-53849.643927770136,-52879.84643934327,187500.0,-22513.45932644121,-44251.98367261692,-53613.833023766645,-60984.05253697068,0.0,-24346.43648224312,0.19525,0.92275,0.222,192.0,0.0,0.0,0.0,0.0,0.0,0.0,0.0,0.0,0.0,1647985902.251536,0.0, 2022-03-22 22:51:42.251
47,88.0,86089.12957777138,94325.5685955964,0.0,-187500.02235174447,-41402.20330979864,-51312.07273150358,-48094.24854448421,-53999.84765050979,-52041.11958040233,187500.0,-21489.950596088245,-43444.52690416895,-52565.58091230165,-60066.3793166136,0.0,-23829.99942660325,0.194625,0.923375,0.227,192.0,3.0,8.0,14.0,112.0,3.5,32.0,0.0,0.0,0.0,1647985902.25885,0.0, 2022-03-22 22:51:42.258
48,90.0,85592.45146423,114886.3124711886,0.0,-187500.02235174447,-42561.67770167324,-52334.70974382279,-49149.31793800807,-54609.60323925057,-52519.26809779026,187500.0,-22402.95230185417,-43841.695051395305,-53498.45331888835,-60785.45728748528,0.0,-24485.59844322186,0.194625,0.923375,0.227,192.0,0.0,0.0,0.0,0.0,0.0,0.0,0.0,0.0,0.0,1647985902.266641,0.0, 2022-03-22 22:51:42.266
49,92.0,86618.26242426186,89834.14200951363,0.0,-187500.02235174447,-42293.92615484312,-51642.56562501975,-48568.463154848,-53473.19584765385,-52528.72288569485,187500.0,-21916.6230459956,-43951.732689348784,-52986.97835051756,-60497.6785776232,0.0,-23938.338331978124,0.194625,0.923375,0.227,192.0,0.0,0.0,0.0,0.0,0.0,0.0,0.0,0.0,0.0,1647985902.273358,0.0, 2022-03-22 22:51:42.273
50,94.0,85486.7277129564,109395.96407365373,0.0,-187500.02235174447,-41625.2737194626,-51777.301940596335,-48492.66838940005,-54693.17641176897,-52016.756178946045,187500.0,-21786.78176245472,-43347.47562974401,-52871.15161075015,-60235.96200179601,0.0,-24184.766314597884,0.194625,0.923375,0.227,192.0,0.0,0.0,0.0,0.0,0.0,0.0,0.0,0.0,0.0,1647985902.283067,0.0, 2022-03-22 22:51:42.283
51,96.0,86310.74712404575,102653.11332382124,0.0,-187500.02235174447,-42934.01306080974,-52208.71296032822,-49145.85341761749,-53847.20758762451,-52867.75414559295,187500.0,-22512.18527700726,-44239.84667537769,-53610.256744653794,-60974.55304557718,0.0,-24347.419958999155,0.194625,0.923375,0.227,192.0,0.0,0.0,0.0,0.0,0.0,0.0,0.0,0.0,0.0,1647985902.289116,0.0, 2022-03-22 22:51:42.289
52,98.0,86108.86616812542,94267.18583907912,0.0,-187500.02235174447,-41405.01962960001,-51324.99203979874,-48108.35249523551,-54010.5988395928,-52036.40336232226,187500.0,-21483.06625879601,-43440.414183189176,-52566.92201696897,-60060.165531655024,0.0,-23829.75355741424,0.1913125,0.9216875,0.2275,192.0,2.5,112.0,14.0,96.0,3.5,16.0,0.0,0.0,0.0,1647985902.296543,0.0, 2022-03-22 22:51:42.296
53,100.0,85600.76631316738,114959.42502730191,0.0,-187500.02235174447,-42563.35408250739,-52340.58825261453,-49152.916568865374,-54629.9433267049,-52521.77149316925,187500.0,-22401.05240357547,-43836.44239144831,-53494.631170586494,-60779.37761299344,0.0,-24487.69950720066,0.1913125,0.9216875,0.2275,192.0,0.0,0.0,0.0,0.0,0.0,0.0,0.0,0.0,0.0,1647985902.304117,0.0, 2022-03-22 22:51:42.304
54,102.0,86635.65208144809,89912.26135638492,0.0,-187500.02235174447,-42288.33821872929,-51653.62973852512,-48568.44080310355,-53482.874153003,-52532.79090318572,187500.0,-21917.58417100718,-43949.564570136616,-52989.951132530114,-60495.91278981124,0.0,-23942.585163424632,0.1913125,0.9216875,0.2275,192.0,0.0,0.0,0.0,0.0,0.0,0.0,0.0,0.0,0.0,1647985902.311071,0.0, 2022-03-22 22:51:42.311
55,104.0,85499.22233810692,109237.55726069896,0.0,-187500.02235174447,-41610.09688497745,-51773.92682718359,-48474.11644150215,-54698.92081009398,-52006.02734160749,187500.0,-21769.12388433503,-43327.87314985671,-52850.69976457355,-60216.71714981999,0.0,-24175.847968560214,0.1913125,0.9216875,0.2275,192.0,0.0,0.0,0.0,0.0,0.0,0.0,0.0,0.0,0.0,1647985902.317765,0.0, 2022-03-22 22:51:42.317
56,106.0,86306.67910655489,102827.72515150608,0.0,-187500.02235174447,-42931.57672066411,-52233.03165829559,-49150.83785663103,-53881.56221885231,-52882.506296933454,187500.0,-22517.72850963217,-44242.79710564579,-53614.61533482258,-60984.5442753487,0.0,-24346.61529619876,0.1913125,0.9216875,0.2275,192.0,0.0,0.0,0.0,0.0,0.0,0.0,0.0,0.0,0.0,1647985902.33378,0.0, 2022-03-22 22:51:42.333
57,108.0,86117.71745892972,94130.72843917948,0.0,-187500.02235174447,-41402.65034468775,-51329.48474043426,-48102.742207377225,-54010.82235703735,-52057.078725943415,187500.0,-21480.65227039484,-43448.86314259328,-52568.88897048104,-60065.753467768845,0.0,-23824.43384223388,0.18765625,0.92784375,0.22775,192.0,2.5,96.0,14.5,24.0,3.5,16.0,0.0,0.0,0.0,1647985902.341074,0.0, 2022-03-22 22:51:42.341
58,110.0,85594.21725204197,115025.8544118231,0.0,-187500.02235174447,-42538.25307348408,-52334.21800544477,-49126.988545297216,-54633.9442889624,-52530.06399036217,187500.0,-22388.647185402773,-43835.9953565592,-53494.13943220848,-60779.802296138085,0.0,-24481.575129219906,0.18765625,0.92784375,0.22775,192.0,0.0,0.0,0.0,0.0,0.0,0.0,0.0,0.0,0.0,1647985902.350513,0.0, 2022-03-22 22:51:42.350
59,112.0,86628.43246798903,89993.15231956868,0.0,-187500.02235174447,-42300.72108515753,-51663.442154341006,-48577.984997985965,-53493.379472897,-52555.94731044141,187500.0,-21921.026339653297,-43965.83664010008,-53010.62649615127,-60512.69894989717,0.0,-23945.71440764837,0.18765625,0.92784375,0.22775,192.0,0.0,0.0,0.0,0.0,0.0,0.0,0.0,0.0,0.0,1647985902.356858,0.0, 2022-03-22 22:51:42.356
60,114.0,85501.74808523037,109085.31952921386,0.0,-187500.02235174447,-41597.825777271486,-51759.82287643229,-48473.82586882423,-54689.08604253364,-52016.04092312347,187500.0,-21758.79737839668,-43339.540760462376,-52849.82804653979,-60220.80751905531,0.0,-24172.04817200281,0.18765625,0.92784375,0.22775,192.0,0.0,0.0,0.0,0.0,0.0,0.0,0.0,0.0,0.0,1647985902.363673,0.0, 2022-03-22 22:51:42.363
61,116.0,86298.23014715078,102990.57996160748,0.0,-187500.02235174447,-42933.230749753806,-52223.95685004674,-49152.26836827616,-53874.63317807117,-52876.40427069715,187500.0,-22505.993843793138,-44239.0420125773,-53605.428767851445,-60977.48112410082,0.0,-24353.87961314674,0.18765625,0.92784375,0.22775,192.0,0.0,0.0,0.0,0.0,0.0,0.0,0.0,0.0,0.0,1647985902.371456,0.0, 2022-03-22 22:51:42.371
62,118.0,86124.51238924413,93961.3245679527,0.0,-187500.02235174447,-41410.07112384691,-51329.17181601189,-48110.02887606966,-54001.72519704404,-52064.23128416912,187500.0,-21480.78638086157,-43462.65416892221,-52575.59449381763,-60075.65529056255,0.0,-23823.316255011112,0.18765625,0.92784375,0.22775,192.0,0.0,0.0,0.0,0.0,0.0,0.0,0.0,0.0,0.0,1647985902.378779,0.0, 2022-03-22 22:51:42.378
63,120.0,85579.33099023474,115089.55688352072,0.0,-187500.02235174447,-42538.36483220635,-52336.52023512367,-49139.55022568109,-54646.43891411292,-52524.92308913745,187500.0,-22382.120476021824,-43834.430734447335,-53501.67197008991,-60780.11522056046,0.0,-24483.36326877633,0.188,0.932,0.224,192.0,2.5,112.0,14.5,16.0,3.5,0.0,0.0,0.0,0.0,1647985902.385144,0.0, 2022-03-22 22:51:42.385
64,122.0,86627.448991233,90070.28818968394,0.0,-187500.02235174447,-42309.21474805055,-51662.07869792923,-48564.37278561268,-53483.70116754784,-52564.88800822354,187500.0,-21930.570534535716,-43981.929896107904,-53015.18625202016,-60522.66782792423,0.0,-23954.208070541397,0.188,0.932,0.224,192.0,0.0,0.0,0.0,0.0,0.0,0.0,0.0,0.0,0.0,1647985902.393347,0.0, 2022-03-22 22:51:42.393
65,124.0,85504.18442537599,108973.04671681485,0.0,-187500.02235174447,-41599.211585427714,-51755.68780370805,-48458.40316515007,-54683.81103084219,-52009.29069629797,187500.0,-21750.996619581776,-43344.502847731455,-52854.9242442756,-60215.2642864304,0.0,-24169.16479696808,0.188,0.932,0.224,192.0,0.0,0.0,0.0,0.0,0.0,0.0,0.0,0.0,0.0,1647985902.401337,0.0, 2022-03-22 22:51:42.401
66,126.0,86281.30987659811,103190.62807448246,0.0,-187500.02235174447,-42946.73120340481,-52243.02288806711,-49160.35969976899,-53893.02866375788,-52884.09327078978,187500.0,-22517.817916609994,-44254.37530927364,-53631.71441933089,-60993.48497313082,0.0,-24364.58609874083,0.188,0.932,0.224,192.0,0.0,0.0,0.0,0.0,0.0,0.0,0.0,0.0,0.0,1647985902.408416,0.0, 2022-03-22 22:51:42.408
67,128.0,86125.98760437818,93831.86326406756,0.0,-187500.02235174447,-41412.26159480352,-51342.202883029335,-48103.59157366653,-54005.52499360144,-52081.59858961089,187500.0,-21492.9233781008,-43484.91650639969,-52581.07067120918,-60090.11686922513,0.0,-23827.18310680188,0.188,0.932,0.224,192.0,0.0,0.0,0.0,0.0,0.0,0.0,0.0,0.0,0.0,1647985902.41722,0.0, 2022-03-22 22:51:42.417
68,130.0,85567.86454532917,115158.42260818752,0.0,-187500.02235174447,-42521.399858164776,-52344.41040091639,-49122.45114117279,-54662.889798032025,-52535.02607763125,187500.0,-22392.29051974899,-43846.2995107531,-53489.534972850684,-60788.51947647566,0.0,-24484.12322808781,0.178,0.918,0.222,192.0,2.5,72.0,14.0,88.0,3.0,120.0,0.0,0.0,0.0,1647985902.423854,0.0, 2022-03-22 22:51:42.423
69,132.0,86618.12831379514,90171.09455717738,0.0,-187500.02235174447,-42316.836692909805,-51679.8483347712,-48572.77704152788,-53494.407653141934,-52591.48658412536,187500.0,-21952.385837124093,-44003.14170159599,-53022.71878990159,-60538.02347636503,0.0,-23952.621096685067,0.178,0.918,0.222,192.0,0.0,0.0,0.0,0.0,0.0,0.0,0.0,0.0,0.0,1647985902.431022,0.0, 2022-03-22 22:51:42.431
70,134.0,85491.84626243667,108901.4093758356,0.0,-187500.02235174447,-41580.14554740734,-51766.30488232433,-48449.37306039013,-54701.49126070634,-52045.45581882666,187500.0,-21776.388201283004,-43362.00426363996,-52842.42961912508,-60229.50234764843,0.0,-24168.8071690568,0.178,0.918,0.222,192.0,0.0,0.0,0.0,0.0,0.0,0.0,0.0,0.0,0.0,1647985902.438419,0.0, 2022-03-22 22:51:42.438
71,136.0,86271.45275729331,103351.00184094928,0.0,-187500.02235174447,-42937.36582247804,-52245.32511774601,-49151.46370547578,-53902.5728586403,-52918.00086712848,187500.0,-22543.678884944784,-44266.06527162377,-53630.99916350832,-60998.89409528901,0.0,-24366.888328419725,0.178,0.918,0.222,192.0,0.0,0.0,0.0,0.0,0.0,0.0,0.0,0.0,0.0,1647985902.453649,0.0, 2022-03-22 22:51:42.453
72,138.0,86124.7806101776,93736.04133558768,0.0,-187500.02235174447,-41410.07112384691,-51327.85306308902,-48095.76846310717,-53992.06924343935,-52117.51784295057,187500.0,-21508.97193061971,-43491.71143671411,-52589.07259572418,-60089.75924131385,0.0,-23822.399833488445,0.178,0.918,0.222,192.0,0.0,0.0,0.0,0.0,0.0,0.0,0.0,0.0,0.0,1647985902.460692,0.0, 2022-03-22 22:51:42.460
73,140.0,85560.75669059237,115214.12315537014,0.0,-187500.02235174447,-42502.26676491103,-52318.66119130387,-49095.7855100376,-54661.88396953153,-52559.59064478763,187500.0,-22395.352708739367,-43841.71740313976,-53497.26867643222,-60779.243502526704,0.0,-24482.916233887227,0.174,0.922,0.224,192.0,2.5,56.0,14.0,104.0,3.5,0.0,0.0,0.0,0.0,1647985902.468335,0.0, 2022-03-22 22:51:42.468
74,142.0,86614.75320038239,90221.58714790193,0.0,-187500.02235174447,-42323.1398848462,-51678.86485801517,-48588.53502136887,-53502.58839161258,-52627.964631076415,187500.0,-21966.82506404222,-44012.8423586896,-53051.70900246013,-60544.57253749044,0.0,-23959.773654910765,0.174,0.922,0.224,192.0,0.0,0.0,0.0,0.0,0.0,0.0,0.0,0.0,0.0,1647985902.476303,0.0, 2022-03-22 22:51:42.476
75,144.0,85498.61884100662,108723.98122834937,0.0,-187500.02235174447,-41566.84625945643,-51746.277719292375,-48447.27199641133,-54689.42131870047,-52056.40817360976,187500.0,-21765.726419177823,-43359.99260663898,-52859.23813095548,-60224.02617025688,0.0,-24161.07346547526,0.174,0.922,0.224,192.0,0.0,0.0,0.0,0.0,0.0,0.0,0.0,0.0,0.0,1647985902.484243,0.0, 2022-03-22 22:51:42.484
76,146.0,86264.23314383425,103510.45918589344,0.0,-187500.02235174447,-42929.85563634105,-52232.45051293976,-49136.33157447953,-53900.09181500576,-52931.456617290576,187500.0,-22547.56808848001,-44265.50647801239,-53625.768855305774,-61005.13023199204,0.0,-24334.567705937352,0.174,0.922,0.224,192.0,0.0,0.0,0.0,0.0,0.0,0.0,0.0,0.0,0.0,1647985902.490685,0.0, 2022-03-22 22:51:42.490
77,148.0,86134.54832250456,93530.94172846575,0.0,-187500.02235174447,-41403.83498714388,-51324.67911537637,-48080.68103559984,-53982.56975204584,-52128.89488087832,187500.0,-21511.34121553197,-43496.69587572765,-52579.2601799083,-60088.46284013544,0.0,-23755.12108267797,0.174,0.922,0.224,192.0,0.0,0.0,0.0,0.0,0.0,0.0,0.0,0.0,0.0,1647985902.49887,0.0, 2022-03-22 22:51:42.498
78,150.0,85554.4982021449,115235.26790562486,0.0,-187500.02235174447,-42489.23569789359,-52314.90609823538,-49089.79524252359,-54671.45051615841,-52558.67422326496,187500.0,-22395.79974362847,-43844.3996124744,-53493.71474906382,-60775.68957515832,0.0,-24424.153497714226,0.166,0.926,0.22,192.0,2.5,24.0,14.0,120.0,3.0,112.0,0.0,0.0,0.0,1647985902.505945,0.0, 2022-03-22 22:51:42.505
79,152.0,86616.5413399388,90261.26149431008,0.0,-187500.02235174447,-42339.970748421045,-51681.48001211644,-48590.03258824737,-53502.43192940139,-52640.72747716039,187500.0,-21978.984413025908,-44025.51579779575,-53056.76049670702,-60555.63665099581,0.0,-23847.05380762265,0.166,0.926,0.22,192.0,0.0,0.0,0.0,0.0,0.0,0.0,0.0,0.0,0.0,1647985902.51395,0.0, 2022-03-22 22:51:42.513
80,154.0,85509.5264923008,108551.4257611544,0.0,-187500.02235174447,-41569.79668972453,-51749.87635014968,-48438.241891651385,-54695.83626935915,-52057.92809223272,187500.0,-21756.048113828678,-43362.02661538441,-52843.904834259134,-60221.99216151144,0.0,-23969.04962885972,0.166,0.926,0.22,192.0,0.0,0.0,0.0,0.0,0.0,0.0,0.0,0.0,0.0,1647985902.521763,0.0, 2022-03-22 22:51:42.521
81,156.0,86262.89203916694,103685.56275195631,0.0,-187500.02235174447,-42936.02471781072,-52247.22501602471,-49160.42675500235,-53918.75552162594,-52933.60238475829,187500.0,-22547.14340533536,-44268.79218444732,-53647.53945440525,-61013.31097046269,0.0,-24169.231852201447,0.166,0.926,0.22,192.0,0.0,0.0,0.0,0.0,0.0,0.0,0.0,0.0,0.0,1647985902.53049,0.0, 2022-03-22 22:51:42.530
82,158.0,86157.21299138224,93394.57373554392,0.0,-187500.02235174447,-41405.6231267003,-51309.0105425132,-48085.50901240218,-53957.1334668557,-52134.19224431423,187500.0,-21504.68039568429,-43499.48984378456,-52586.65860732301,-60091.2344564479,0.0,-23666.31760195704,0.166,0.926,0.22,192.0,0.0,0.0,0.0,0.0,0.0,0.0,0.0,0.0,0.0,1647985902.537764,0.0, 2022-03-22 22:51:42.537
83,160.0,85553.67118760005,115312.38142399568,0.0,-187500.02235174447,-42479.22211637761,-52313.654400545885,-49095.80786178206,-54668.99182426833,-52555.54497904122,187500.0,-22390.05534530346,-43836.97883331524,-53492.79832754115,-60772.76149663467,0.0,-24334.411243726165,0.172,0.94,0.22,192.0,2.5,48.0,14.5,48.0,3.0,112.0,0.0,0.0,0.0,1647985902.544051,0.0, 2022-03-22 22:51:42.544
84,162.0,86636.47909599294,90359.0727280465,0.0,-187500.02235174447,-42337.04266989741,-51672.2934451453,-48591.10547198123,-53475.5204290772,-52638.69346841496,187500.0,-21972.547110622774,-44019.07849539262,-53052.35720304933,-60551.21100559367,0.0,-23833.978037116296,0.172,0.94,0.22,192.0,0.0,0.0,0.0,0.0,0.0,0.0,0.0,0.0,0.0,1647985902.551081,0.0, 2022-03-22 22:51:42.551
85,164.0,85510.84524522368,108470.62420494846,0.0,-187500.02235174447,-41550.79770693752,-51734.945384853534,-48425.0320106783,-54678.49131566183,-52050.99905145157,187500.0,-21752.51653820473,-43354.069394358325,-52835.54528183285,-60211.33037940627,0.0,-24043.90562104054,0.172,0.94,0.22,192.0,0.0,0.0,0.0,0.0,0.0,0.0,0.0,0.0,0.0,1647985902.559236,0.0, 2022-03-22 22:51:42.559
86,166.0,86263.85316417852,103894.66332133573,0.0,-187500.02235174447,-42928.134552018,-52232.11523677293,-49148.28975776312,-53906.05973077533,-52923.7899689424,187500.0,-22550.093835603457,-44265.64058847912,-53646.64538462703,-61005.621970370055,0.0,-24291.31708041633,0.172,0.94,0.22,192.0,0.0,0.0,0.0,0.0,0.0,0.0,0.0,0.0,0.0,1647985902.566023,0.0, 2022-03-22 22:51:42.566
87,168.0,86166.42191009784,93350.8760751338,0.0,-187500.02235174447,-41410.62991745829,-51305.2107459558,-48078.51291638767,-53953.22191157602,-52119.17187204026,187500.0,-21505.39565150686,-43503.75902697552,-52586.16686894499,-60089.06633723573,0.0,-23782.591376613545,0.172,0.94,0.22,192.0,0.0,0.0,0.0,0.0,0.0,0.0,0.0,0.0,0.0,1647985902.580787,0.0, 2022-03-22 22:51:42.580
88,170.0,85569.67503663004,115316.36003450872,0.0,-187500.02235174447,-42451.32713929738,-52286.96641766625,-49076.67476852832,-54658.95589100789,-52508.2933912627,187500.0,-22363.61323161283,-43813.867129548446,-53466.71384176181,-60749.31451670105,0.0,-24443.06307352341,0.18,0.934,0.226,192.0,2.5,80.0,14.5,24.0,3.5,8.0,0.0,0.0,0.0,1647985902.588679,0.0, 2022-03-22 22:51:42.588
89,172.0,86631.91934012406,90461.01903450716,0.0,-187500.02235174447,-42347.01154792447,-51679.08837545972,-48619.84981535075,-53479.320225634605,-52607.19986047744,187500.0,-21976.12338973563,-44027.460399563366,-53051.8207611824,-60553.289717828,0.0,-23929.084709773622,0.18,0.934,0.226,192.0,0.0,0.0,0.0,0.0,0.0,0.0,0.0,0.0,0.0,1647985902.596674,0.0, 2022-03-22 22:51:42.596
90,174.0,85529.82187626623,108330.5234707026,0.0,-187500.02235174447,-41536.73845967513,-51705.731654850446,-48411.799777960754,-54656.452495628895,-52004.48507124008,187500.0,-21740.69246538788,-43348.21323731104,-52844.91066275963,-60191.79495475232,0.0,-24082.261214525846,0.18,0.934,0.226,192.0,0.0,0.0,0.0,0.0,0.0,0.0,0.0,0.0,0.0,1647985902.603419,0.0, 2022-03-22 22:51:42.603
91,176.0,86257.66173096439,104034.18291022576,0.0,-187500.02235174447,-42919.797351336165,-52235.02096355212,-49156.761068911685,-53912.27351573391,-52873.4314886846,187500.0,-22545.198803567742,-44258.24216106441,-53650.64634688453,-60989.21578993986,0.0,-24335.81940362685,0.18,0.934,0.226,192.0,0.0,0.0,0.0,0.0,0.0,0.0,0.0,0.0,0.0,1647985902.611386,0.0, 2022-03-22 22:51:42.611
92,178.0,86179.16240443736,93194.74914011348,0.0,-187500.02235174447,-41411.68044944769,-51305.16604246689,-48083.51970714566,-53950.83027491931,-52084.95135127918,187500.0,-21508.033157352587,-43517.14772190425,-52596.67218883899,-60083.81367728874,0.0,-23942.67457040245,0.18,0.934,0.226,192.0,0.0,0.0,0.0,0.0,0.0,0.0,0.0,0.0,0.0,1647985902.619319,0.0, 2022-03-22 22:51:42.619
93,180.0,85556.48750740141,115368.17137815613,0.0,-187500.02235174447,-42451.05891836392,-52300.71274050626,-49082.173297664325,-54688.34843496662,-52485.13698400701,187500.0,-22366.586013625387,-43818.069257506046,-53477.06269944462,-60741.3349439305,0.0,-24800.780391786146,0.183,0.926,0.2339999999999999,192.0,2.5,104.0,14.0,88.0,3.5,72.0,0.0,0.0,0.0,1647985902.626124,0.0, 2022-03-22 22:51:42.626
94,182.0,86637.26140704888,90578.18687894188,0.0,-187500.02235174447,-42355.10287941729,-51682.35173015019,-48600.09087325226,-53477.509734333726,-52590.90543876952,187500.0,-21986.986337540908,-44046.19116141691,-53083.135555164285,-60554.47436028413,0.0,-24341.00500834048,0.183,0.926,0.2339999999999999,192.0,0.0,0.0,0.0,0.0,0.0,0.0,0.0,0.0,0.0,1647985902.633099,0.0, 2022-03-22 22:51:42.633
95,184.0,85541.62359733864,108153.49765461656,0.0,-187500.02235174447,-41520.62285192285,-51705.26226821688,-48400.35568479964,-54658.53120786324,-51978.355881971824,187500.0,-21723.63808436848,-43351.565998979335,-52830.85141549724,-60179.836771468734,0.0,-24599.48058122165,0.183,0.926,0.2339999999999999,192.0,0.0,0.0,0.0,0.0,0.0,0.0,0.0,0.0,0.0,1647985902.640992,0.0, 2022-03-22 22:51:42.640
96,186.0,86258.28757980914,104215.96964788076,0.0,-187500.02235174447,-42924.20064499386,-52250.5330742041,-49163.46659224828,-53926.95861184104,-52854.94659602006,187500.0,-22528.569105693,-44260.23146632093,-53649.2158352394,-60985.61715908256,0.0,-24981.24837651829,0.183,0.926,0.2339999999999999,192.0,0.0,0.0,0.0,0.0,0.0,0.0,0.0,0.0,0.0,1647985902.649106,0.0, 2022-03-22 22:51:42.649
97,188.0,86188.75130280868,93070.89812408664,0.0,-187500.02235174447,-41406.49484473406,-51309.99401926924,-48069.37105290545,-53931.29485026537,-52084.07963324543,187500.0,-21494.331538001483,-43540.54999834896,-52590.88308702506,-60093.46963089343,0.0,-24237.31526581231,0.183,0.926,0.2339999999999999,192.0,0.0,0.0,0.0,0.0,0.0,0.0,0.0,0.0,0.0,1647985902.655615,0.0, 2022-03-22 22:51:42.655
98,190.0,85556.66632135706,115392.62418659024,0.0,-187500.02235174447,-42428.23778727505,-52298.87989746093,-49060.916788687326,-54683.18518199745,-52477.80561182567,187500.0,-22341.32854239089,-43837.068240293054,-53457.70608874632,-60745.20179572128,0.0,-24705.78547785109,0.1835,0.921,0.236,192.0,2.5,96.0,14.0,80.0,3.5,56.0,0.0,0.0,0.0,1647985902.665013,0.0, 2022-03-22 22:51:42.665
99,192.0,86644.39161353013,90635.63086219202,0.0,-187500.02235174447,-42356.332225362334,-51700.27782920335,-48601.85666106423,-53485.42225187091,-52605.00938952081,187500.0,-21972.97179376743,-44070.66632159547,-53082.62146504182,-60568.8465319689,0.0,-24130.25040987139,0.1835,0.921,0.236,192.0,0.0,0.0,0.0,0.0,0.0,0.0,0.0,0.0,0.0,1647985902.67154,0.0, 2022-03-22 22:51:42.671
100,194.0,85539.29901591528,108009.32890287985,0.0,-187500.02235174447,-41516.89011059882,-51724.52947193736,-48394.58893473017,-54666.28726318923,-51994.94087635767,187500.0,-21701.28633991317,-43366.18403985311,-52808.47731929748,-60186.96697794998,0.0,-24238.56696350181,0.1835,0.921,0.236,192.0,0.0,0.0,0.0,0.0,0.0,0.0,0.0,0.0,0.0,1647985902.678683,0.0, 2022-03-22 22:51:42.678
101,196.0,86249.54804772712,104365.25694909776,0.0,-187500.02235174447,-42925.16177000544,-52265.77696392262,-49161.67845269185,-53948.86332140724,-52896.61024768475,187500.0,-22535.74401566315,-44285.980675933446,-53656.59191090964,-61012.9533425514,0.0,-24449.478024182084,0.1835,0.921,0.236,192.0,0.0,0.0,0.0,0.0,0.0,0.0,0.0,0.0,0.0,1647985902.686204,0.0, 2022-03-22 22:51:42.686
102,198.0,86192.4393406438,92919.93444203548,0.0,-187500.02235174447,-41410.76402792502,-51325.126150265474,-48072.67911108484,-53945.756428927954,-52128.89488087832,187500.0,-21492.16341878932,-43550.4294693982,-52591.44188063644,-60109.02644503432,0.0,-23864.801092720165,0.1835,0.921,0.236,192.0,0.0,0.0,0.0,0.0,0.0,0.0,0.0,0.0,0.0,1647985902.702565,0.0, 2022-03-22 22:51:42.702
103,200.0,85545.6916148295,115459.0535711114,0.0,-187500.02235174447,-42407.94240330964,-52306.948877209295,-49053.786582206085,-54701.893592106535,-52521.16799606896,187500.0,-22343.362551136324,-43838.7446211272,-53466.28915861716,-60757.852883082975,0.0,-24518.58961803789,0.17575,0.9215,0.2329999999999999,192.0,2.5,32.0,14.0,104.0,3.5,24.0,0.0,0.0,0.0,1647985902.708946,0.0, 2022-03-22 22:51:42.708
104,202.0,86650.98537814444,90709.68219157246,0.0,-187500.02235174447,-42367.93278073464,-51701.68598910404,-48613.01018154743,-53492.7759757967,-52664.19680883847,187500.0,-21985.35466019567,-44070.17458321746,-53099.07234896092,-60590.46066885718,0.0,-24019.385757373067,0.17575,0.9215,0.2329999999999999,192.0,0.0,0.0,0.0,0.0,0.0,0.0,0.0,0.0,0.0,1647985902.715979,0.0, 2022-03-22 22:51:42.715
105,204.0,85542.07063222774,107888.02598572087,0.0,-187500.02235174447,-41503.76963660355,-51712.48188167595,-48393.04666436275,-54671.96460628088,-52039.57731003491,187500.0,-21698.11239220052,-43354.918760647626,-52818.55795604682,-60189.24685588442,0.0,-24165.566166110777,0.17575,0.9215,0.2329999999999999,192.0,0.0,0.0,0.0,0.0,0.0,0.0,0.0,0.0,0.0,1647985902.724023,0.0, 2022-03-22 22:51:42.724
106,206.0,86248.63162620446,104555.49264615688,0.0,-187500.02235174447,-42921.85371182606,-52261.84305689848,-49171.17794408536,-53953.06544936484,-52941.71606799556,187500.0,-22537.88978313086,-44275.60946650618,-53658.11182953261,-61013.64624662951,0.0,-24417.515029611,0.17575,0.9215,0.2329999999999999,192.0,0.0,0.0,0.0,0.0,0.0,0.0,0.0,0.0,0.0,1647985902.731105,0.0, 2022-03-22 22:51:42.731
107,208.0,86207.3479541955,92788.86381254958,0.0,-187500.02235174447,-41409.55703372444,-51312.8103390706,-48083.8996868014,-53930.84781537626,-52170.80440173202,187500.0,-21485.904930341832,-43545.53443736249,-52595.375787660574,-60102.99147403139,0.0,-23843.23165932079,0.17575,0.9215,0.2329999999999999,192.0,0.0,0.0,0.0,0.0,0.0,0.0,0.0,0.0,0.0,1647985902.739975,0.0, 2022-03-22 22:51:42.739
108,210.0,85541.936521761,115520.5655718524,0.0,-187500.02235174447,-42416.59252841384,-52287.592266511,-49075.37836734991,-54705.67103691949,-52540.926938167446,187500.0,-22333.885411487277,-43828.1945977443,-53461.12590564798,-60746.945231788784,0.0,-24484.927890888204,0.183875,0.92875,0.2254999999999999,192.0,3.0,0.0,14.5,32.0,3.0,104.0,0.0,0.0,0.0,1647985902.747044,0.0, 2022-03-22 22:51:42.747
109,212.0,86643.83281991874,90729.08350575969,0.0,-187500.02235174447,-42389.256344945,-51711.76662585338,-48659.39005129219,-53506.16467072543,-52687.30851260525,187500.0,-21977.91152929205,-44072.70033034091,-53099.005293727554,-60584.068069942965,0.0,-23995.961129183903,0.183875,0.92875,0.2254999999999999,192.0,0.0,0.0,0.0,0.0,0.0,0.0,0.0,0.0,0.0,1647985902.75347,0.0, 2022-03-22 22:51:42.753
110,214.0,85545.46809738495,107749.46752184242,0.0,-187500.02235174447,-41508.70937212818,-51705.21756472797,-48408.737588970376,-54661.21341719788,-52046.618109538336,187500.0,-21689.08228744057,-43362.27248457343,-52828.21390965151,-60181.870780214165,0.0,-24150.478738603444,0.183875,0.92875,0.2254999999999999,192.0,0.0,0.0,0.0,0.0,0.0,0.0,0.0,0.0,0.0,1647985902.760689,0.0, 2022-03-22 22:51:42.760
111,216.0,86241.16614355637,104699.8625635937,0.0,-187500.02235174447,-42940.69623240188,-52260.837228398,-49202.98447644526,-53948.97508012952,-52929.064980633855,187500.0,-22532.257143528124,-44280.035111908335,-53674.49565821834,-61007.27599945975,0.0,-24435.79875657544,0.183875,0.92875,0.2254999999999999,192.0,0.0,0.0,0.0,0.0,0.0,0.0,0.0,0.0,0.0,1647985902.771072,0.0, 2022-03-22 22:51:42.771
112,218.0,86214.34405021001,92673.70762511584,0.0,-187500.02235174447,-41431.39468805727,-51304.07080698858,-48095.14261426242,-53914.97807681299,-52150.17374159977,187500.0,-21477.29950872654,-43554.54219037798,-52619.00158154984,-60090.295683180775,0.0,-23844.77392968821,0.183875,0.92875,0.2254999999999999,192.0,0.0,0.0,0.0,0.0,0.0,0.0,0.0,0.0,0.0,1647985902.777403,0.0, 2022-03-22 22:51:42.777
113,220.0,85547.36799566365,115595.04158437748,0.0,-187500.02235174447,-42413.6644498902,-52290.09566189,-49064.15779163335,-54706.00631308631,-52502.683103404415,187500.0,-22320.78728923646,-43825.71355410976,-53468.23376038477,-60726.761606545646,0.0,-24472.76854190452,0.1929375,0.920375,0.21775,192.0,3.0,40.0,14.0,64.0,3.0,72.0,0.0,0.0,0.0,1647985902.78567,0.0, 2022-03-22 22:51:42.785
114,222.0,86657.17681135856,90785.63341923158,0.0,-187500.02235174447,-42403.025019529465,-51710.09024501923,-48673.337539832304,-53479.90137099045,-52652.23862555488,187500.0,-21980.77255258233,-44079.98699903333,-53125.26859346254,-60578.50248557359,0.0,-23983.064172633192,0.1929375,0.920375,0.21775,192.0,0.0,0.0,0.0,0.0,0.0,0.0,0.0,0.0,0.0,1647985902.791767,0.0, 2022-03-22 22:51:42.791
115,224.0,85563.34949294919,107608.60682828508,0.0,-187500.02235174447,-41499.16517724576,-51691.60535235469,-48398.83576617668,-54638.77226576475,-52007.32374278591,187500.0,-21678.889891968956,-43352.90710364665,-52810.17605187608,-60163.072963127255,0.0,-24113.46424978545,0.1929375,0.920375,0.21775,192.0,0.0,0.0,0.0,0.0,0.0,0.0,0.0,0.0,0.0,1647985902.798803,0.0, 2022-03-22 22:51:42.798
116,226.0,86237.07577432106,104858.6493562042,0.0,-187500.02235174447,-42943.02081382523,-52268.995615124186,-49202.15746190041,-53956.95465290007,-52906.5344222229,187500.0,-22536.23575404117,-44273.664864738574,-53666.538437192256,-60997.508287132776,0.0,-24378.801808214404,0.1929375,0.920375,0.21775,192.0,0.0,0.0,0.0,0.0,0.0,0.0,0.0,0.0,0.0,1647985902.806841,0.0, 2022-03-22 22:51:42.806
117,228.0,86219.66376539037,92529.76239082366,0.0,-187500.02235174447,-41429.20421710065,-51317.48185366176,-48093.443881683816,-53917.66028614764,-52162.57895977247,187500.0,-21502.422869494305,-43567.12622250631,-52616.922869315495,-60101.38214843061,0.0,-23795.689498864354,0.1929375,0.920375,0.21775,192.0,0.0,0.0,0.0,0.0,0.0,0.0,0.0,0.0,0.0,1647985902.813943,0.0, 2022-03-22 22:51:42.813
118,230.0,85539.20960893747,115619.11441315584,0.0,-187500.02235174447,-42392.8549758023,-52288.15106012238,-49054.92652117331,-54705.536926452754,-52511.86967037555,187500.0,-22332.14197541976,-43818.56099588407,-53455.64972825644,-60729.06383622454,0.0,-24448.00280904804,0.19346875,0.9221875,0.210875,192.0,3.0,8.0,14.0,112.0,3.0,48.0,0.0,0.0,0.0,1647985902.82842,0.0, 2022-03-22 22:51:42.828
119,232.0,86649.42075603256,90858.07542301124,0.0,-187500.02235174447,-42407.60712714281,-51735.8618063762,-48670.29770258638,-53488.32797865009,-52695.66806503154,187500.0,-22009.40513722958,-44090.64878113852,-53116.52906138052,-60594.483982859136,0.0,-23976.112780107596,0.19346875,0.9221875,0.210875,192.0,0.0,0.0,0.0,0.0,0.0,0.0,0.0,0.0,0.0,1647985902.837058,0.0, 2022-03-22 22:51:42.837
120,234.0,85562.7459958489,107483.41470759091,0.0,-187500.02235174447,-41497.086465011416,-51694.30991343378,-48388.77748117179,-54642.90733848898,-52045.85815022685,187500.0,-21689.93165372988,-43357.31039730435,-52807.851470452726,-60168.102105629696,0.0,-24108.72567996093,0.19346875,0.9221875,0.210875,192.0,0.0,0.0,0.0,0.0,0.0,0.0,0.0,0.0,0.0,1647985902.843559,0.0, 2022-03-22 22:51:42.843
121,236.0,86223.82118985907,105034.043494945,0.0,-187500.02235174447,-42935.71179338834,-52281.11026061896,-49231.59470934805,-53972.4891152965,-52952.28844312292,187500.0,-22552.105492604434,-44275.34124557272,-53679.03306234277,-61009.68998786092,0.0,-24391.765819998483,0.19346875,0.9221875,0.210875,192.0,0.0,0.0,0.0,0.0,0.0,0.0,0.0,0.0,0.0,1647985902.850996,0.0, 2022-03-22 22:51:42.850
122,238.0,86233.52184695266,92412.058104522,0.0,-187500.02235174447,-41444.783382986,-51309.30111519112,-48120.62360294147,-53902.81872782931,-52203.59441084795,187500.0,-21505.7756311626,-43570.724853363616,-52620.007410050326,-60109.451128178975,0.0,-23812.833286861576,0.19346875,0.9221875,0.210875,192.0,0.0,0.0,0.0,0.0,0.0,0.0,0.0,0.0,0.0,1647985902.859093,0.0, 2022-03-22 22:51:42.859
123,240.0,85533.10758270117,115664.66726835576,0.0,-187500.02235174447,-42389.412807156186,-52283.97128390924,-49063.19666662177,-54715.326990524176,-52527.76176068327,187500.0,-22321.74841424804,-43819.70093485129,-53442.14927460543,-60728.32622865752,0.0,-24462.93377434418,0.19346875,0.9221875,0.210875,192.0,0.0,0.0,0.0,0.0,0.0,0.0,0.0,0.0,0.0,1647985902.86928,0.0, 2022-03-22 22:51:42.869
124,242.0,86657.60149450321,90939.3687175952,0.0,-187500.02235174447,-42401.16982473968,-51715.25349798841,-48669.51539153045,-53466.467972572806,-52711.69426580599,187500.0,-22008.60047442919,-44096.370827719074,-53122.74284633909,-60599.91545676177,0.0,-23996.117591395094,0.192,0.944,0.208,192.0,3.0,0.0,14.5,64.0,3.0,64.0,0.0,0.0,0.0,1647985902.875304,0.0, 2022-03-22 22:51:42.875
125,244.0,85572.06667328677,107298.14109780086,0.0,-187500.02235174447,-41478.914496769255,-51678.1496021926,-48374.24884727584,-54619.84033821111,-52034.50346404356,187500.0,-21668.898662197436,-43354.33761529179,-52787.48903125394,-60160.16723634807,0.0,-24111.45259278448,0.192,0.944,0.208,192.0,0.0,0.0,0.0,0.0,0.0,0.0,0.0,0.0,0.0,1647985902.881298,0.0, 2022-03-22 22:51:42.881
126,246.0,86214.05347753208,105175.28416815808,0.0,-187500.02235174447,-42940.15979053495,-52275.85760067196,-49218.87656675298,-53962.94492041408,-52936.821035959845,187500.0,-22546.89753614635,-44280.035111908335,-53661.48694294536,-61013.6015431406,0.0,-24404.03692770445,0.192,0.944,0.208,192.0,0.0,0.0,0.0,0.0,0.0,0.0,0.0,0.0,0.0,1647985902.888704,0.0, 2022-03-22 22:51:42.888
127,248.0,86240.0038528447,92225.44339006464,0.0,-187500.02235174447,-41426.65611823274,-51288.67045505887,-48050.48382884072,-53854.29309061684,-52185.04246295005,187500.0,-21496.499657213648,-43578.32444647842,-52610.284401212266,-60110.144032257085,0.0,-23819.29294100916,0.192,0.944,0.208,192.0,0.0,0.0,0.0,0.0,0.0,0.0,0.0,0.0,0.0,1647985902.896786,0.0, 2022-03-22 22:51:42.896
128,250.0,85516.81316099325,115639.76742503257,0.0,-187500.02235174447,-42359.43911784162,-52256.09865857347,-49024.75166615864,-54693.73520538035,-52499.0397690582,187500.0,-22313.32180658839,-43827.38993494391,-53441.90340541642,-60726.62749607891,0.0,-24460.296268498456,0.192,0.944,0.208,192.0,0.0,0.0,0.0,0.0,0.0,0.0,0.0,0.0,0.0,1647985902.904614,0.0, 2022-03-22 22:51:42.904
129,252.0,86635.07093609226,91026.09348608178,0.0,-187500.02235174447,-42410.89283357774,-51726.51877719388,-48656.6854902131,-53463.83046672708,-52693.745815008384,187500.0,-22021.676244935545,-44123.505845487816,-53128.06256151946,-60620.344951193925,0.0,-23993.05540240472,0.192,0.934,0.21,192.0,3.0,0.0,14.5,24.0,3.0,72.0,0.0,0.0,0.0,1647985902.911385,0.0, 2022-03-22 22:51:42.911
130,254.0,85562.65658887108,107117.80722353543,0.0,-187500.02235174447,-41475.98641824561,-51664.35857586367,-48343.00110852732,-54603.03182638071,-52009.96124863163,187500.0,-21671.78203723217,-43379.77390048193,-52781.07408059527,-60171.29840508681,0.0,-24102.847171169185,0.192,0.934,0.21,192.0,0.0,0.0,0.0,0.0,0.0,0.0,0.0,0.0,0.0,1647985902.919524,0.0, 2022-03-22 22:51:42.919
131,0.0,86208.51024490717,105336.57435614758,0.0,-187500.02235174447,-42933.230749753806,-52266.536923234096,-49176.408252287896,-53946.65049870616,-52899.82889888631,187500.0,-22549.17741408079,-44296.64245803862,-53677.82606814219,-61020.01649379928,0.0,-24403.075802692867,0.192,0.934,0.21,192.0,0.0,0.0,0.0,0.0,0.0,0.0,0.0,0.0,0.0,1647985902.926561,0.0, 2022-03-22 22:51:42.926
132,2.0,86247.82696340406,92072.89273415718,0.0,-187500.02235174447,-41433.875731691805,-51289.22924867025,-48054.79771552059,-53839.362125320695,-52148.47500902117,187500.0,-21503.249884039156,-43592.741321652094,-52615.31354371472,-60116.156651515565,0.0,-23813.436783961868,0.192,0.934,0.21,192.0,0.0,0.0,0.0,0.0,0.0,0.0,0.0,0.0,0.0,1647985902.934602,0.0, 2022-03-22 22:51:42.934
133,4.0,85519.04833543877,115620.09788991188,0.0,-187500.02235174447,-42340.97657692154,-52245.66039391284,-48993.45922392121,-54685.77798435426,-52453.64337606948,187500.0,-22307.59976000783,-43819.43271391782,-53431.93452738936,-60714.69166453978,0.0,-24455.825919607392,0.192,0.934,0.21,192.0,0.0,0.0,0.0,0.0,0.0,0.0,0.0,0.0,0.0,1647985902.948926,0.0, 2022-03-22 22:51:42.948
134,6.0,86664.01644516188,91131.70547863311,0.0,-187500.02235174447,-42394.933688036646,-51708.54797465182,-48611.60202164674,-53429.78875992165,-52647.79062840827,187500.0,-22023.53143972533,-44117.3144122737,-53135.97507905663,-60612.94652377922,0.0,-24003.60542578762,0.174,0.912,0.212,192.0,2.5,56.0,14.0,64.0,3.0,80.0,0.0,0.0,0.0,1647985902.955574,0.0, 2022-03-22 22:51:42.955
135,8.0,85584.78481588184,106895.60853190524,0.0,-187500.02235174447,-41442.52585679601,-51642.40916280856,-48299.97400045085,-54572.6781574104,-51954.05953574891,187500.0,-21656.7616649582,-43356.57278973732,-52769.69704266752,-60145.3480297742,0.0,-24105.81995318174,0.174,0.912,0.212,192.0,0.0,0.0,0.0,0.0,0.0,0.0,0.0,0.0,0.0,1647985902.963699,0.0, 2022-03-22 22:51:42.963
136,10.0,86206.20801522827,105506.91700064148,0.0,-187500.02235174447,-42921.02669728121,-52268.12389709042,-49153.00597584319,-53947.34340278428,-52862.63559611268,187500.0,-22557.402856040346,-44283.589039276725,-53671.25465527233,-61011.54518265071,0.0,-24409.49075335154,0.174,0.912,0.212,192.0,0.0,0.0,0.0,0.0,0.0,0.0,0.0,0.0,0.0,1647985902.971565,0.0, 2022-03-22 22:51:42.971
137,12.0,86261.08154786605,91951.07572687576,0.0,-187500.02235174447,-41434.36747006983,-51293.09610046102,-48039.75499150217,-53827.73921820393,-52124.17866279825,187500.0,-21513.82225916651,-43592.94248735219,-52601.7683865748,-60116.40252070457,0.0,-23813.369728728503,0.174,0.912,0.212,192.0,0.0,0.0,0.0,0.0,0.0,0.0,0.0,0.0,0.0,1647985902.97959,0.0, 2022-03-22 22:51:42.979
138,14.0,85518.86952148314,115624.21061089166,0.0,-187500.02235174447,-42327.90080641518,-52247.73910614719,-48973.946151011725,-54690.091871034136,-52444.56856782062,187500.0,-22317.99332117955,-43821.220853474246,-53418.03174233816,-60722.1347954434,0.0,-24455.870623096303,0.174,0.912,0.212,192.0,0.0,0.0,0.0,0.0,0.0,0.0,0.0,0.0,0.0,1647985902.986711,0.0, 2022-03-22 22:51:42.986
139,16.0,86654.36049155719,91266.28533199852,0.0,-187500.02235174447,-42416.88310109176,-51733.38076274166,-48613.501919925446,-53438.32712630357,-52653.64678545556,187500.0,-22043.826823690757,-44119.61664195259,-53136.71268662366,-60620.8590413164,0.0,-24004.723013010385,0.168,0.926,0.212,192.0,2.5,32.0,14.0,120.0,3.0,80.0,0.0,0.0,0.0,1647985902.994307,0.0, 2022-03-22 22:51:42.994
140,18.0,85594.61958344217,106762.88387332964,0.0,-187500.02235174447,-41448.60553128785,-51643.59380526469,-48303.81850049717,-54570.9794248318,-51970.19749524564,187500.0,-21664.42831330637,-43356.75160369297,-52760.59988267421,-60145.70565768548,0.0,-24095.04641235428,0.168,0.926,0.212,192.0,0.0,0.0,0.0,0.0,0.0,0.0,0.0,0.0,0.0,1647985903.002912,0.0, 2022-03-22 22:51:43.002
141,20.0,86200.95535528129,105681.52882832634,0.0,-187500.02235174447,-42911.9295372879,-52274.38238553792,-49130.45306568778,-53945.82348416132,-52874.37026195172,187500.0,-22560.08506537498,-44271.80966994878,-53659.5646929222,-61008.28182796024,0.0,-24413.60347433132,0.168,0.926,0.212,192.0,0.0,0.0,0.0,0.0,0.0,0.0,0.0,0.0,0.0,1647985903.009685,0.0, 2022-03-22 22:51:43.009
142,22.0,86266.53537351315,91825.43657129248,0.0,-187500.02235174447,-41438.12256313831,-51298.97460925277,-48033.25063386568,-53813.009418607886,-52147.73740145414,187500.0,-21517.82322142401,-43595.40117924228,-52599.22028770689,-60117.90008758308,0.0,-23813.48148745078,0.168,0.926,0.212,192.0,0.0,0.0,0.0,0.0,0.0,0.0,0.0,0.0,0.0,1647985903.015962,0.0, 2022-03-22 22:51:43.015
143,24.0,85517.0366784378,115639.27568665454,0.0,-187500.02235174447,-42306.06315208234,-52236.898510086365,-48947.168761154266,-54673.01513827028,-52445.35087887656,187500.0,-22305.61045475131,-43806.96044051176,-53420.37867550596,-60704.14164115687,0.0,-24453.90366958424,0.168,0.926,0.212,192.0,0.0,0.0,0.0,0.0,0.0,0.0,0.0,0.0,0.0,1647985903.023945,0.0, 2022-03-22 22:51:43.023
144,26.0,86656.03687239133,91364.43184190177,0.0,-187500.02235174447,-42414.7596853685,-51731.88319586316,-48597.9227540401,-53421.25039353972,-52660.955805892445,187500.0,-22041.546945756312,-44122.70118268743,-53142.770009371045,-60626.29051521904,0.0,-24013.171972414493,0.17,0.942,0.214,192.0,2.5,40.0,14.5,56.0,3.0,88.0,0.0,0.0,0.0,1647985903.031146,0.0, 2022-03-22 22:51:43.031
145,28.0,85594.17254855306,106591.7589177798,0.0,-187500.02235174447,-41435.75327822605,-51643.01265990885,-48278.292808329206,-54548.96295654333,-51961.99440503054,187500.0,-21647.306877053605,-43359.65733047215,-52748.95462381299,-60145.12451232965,0.0,-24094.44291525399,0.17,0.942,0.214,192.0,0.0,0.0,0.0,0.0,0.0,0.0,0.0,0.0,0.0,1647985903.03865,0.0, 2022-03-22 22:51:43.038
146,30.0,86191.63467784342,105851.87147282025,0.0,-187500.02235174447,-42904.46405463982,-52285.91588567685,-49129.76016160967,-53955.32297555482,-52862.590892623775,187500.0,-22551.949030393247,-44279.69983574151,-53661.88927434555,-61016.5519734087,0.0,-24415.056337720915,0.17,0.942,0.214,192.0,0.0,0.0,0.0,0.0,0.0,0.0,0.0,0.0,0.0,1647985903.04665,0.0, 2022-03-22 22:51:43.046
147,32.0,86276.52660328467,91666.96270310436,0.0,-187500.02235174447,-41439.44131606118,-51299.756920308704,-48028.80263671907,-53801.38651149112,-52139.42255251677,187500.0,-21512.41409926583,-43608.85692940437,-52600.159060974016,-60131.08761681171,0.0,-23819.985845087274,0.17,0.942,0.214,192.0,0.0,0.0,0.0,0.0,0.0,0.0,0.0,0.0,0.0,1647985903.054503,0.0, 2022-03-22 22:51:43.054
148,34.0,85508.34184984468,115616.52161079904,0.0,-187500.02235174447,-42288.20410826256,-52234.55157691856,-48950.92385422276,-54688.50489717781,-52423.11089314352,187500.0,-22285.918567886183,-43806.15577771137,-53402.96666657528,-60699.80540273254,0.0,-24456.00473356304,0.17,0.942,0.214,192.0,0.0,0.0,0.0,0.0,0.0,0.0,0.0,0.0,0.0,1647985903.060826,0.0, 2022-03-22 22:51:43.060
149,36.0,86640.25654080589,91466.55696231806,0.0,-187500.02235174447,-42433.93748211116,-51754.95019614104,-48624.02959156389,-53440.91992866039,-52663.59331173817,187500.0,-22050.50999528289,-44146.282273087774,-53146.16747452825,-60643.90368984982,0.0,-24021.44211786296,0.176,0.938,0.22,192.0,2.5,64.0,14.5,40.0,3.0,112.0,0.0,0.0,0.0,1647985903.077529,0.0, 2022-03-22 22:51:43.077
150,38.0,85586.90823160509,106404.45129924432,0.0,-187500.02235174447,-41432.825199702405,-51638.07292438423,-48271.47552627033,-54548.87354956551,-51964.1178207538,187500.0,-21646.6586764644,-43376.64465625818,-52748.08290577924,-60152.79116067781,0.0,-24093.727659431417,0.176,0.938,0.22,192.0,0.0,0.0,0.0,0.0,0.0,0.0,0.0,0.0,0.0,1647985903.08402,0.0, 2022-03-22 22:51:43.084
151,40.0,86170.84755549999,106073.60077781689,0.0,-187500.02235174447,-42907.21331920783,-52286.944065921794,-49132.44237094431,-53961.87203668023,-52862.568540879314,187500.0,-22560.576803753,-44294.89902197111,-53678.7201379204,-61026.40909271349,0.0,-24421.67245407968,0.176,0.938,0.22,192.0,0.0,0.0,0.0,0.0,0.0,0.0,0.0,0.0,0.0,1647985903.090797,0.0, 2022-03-22 22:51:43.090
152,42.0,86285.08732141106,91539.44600098682,0.0,-187500.02235174447,-41452.51708656753,-51289.18454518134,-48021.76183721564,-53774.83263907822,-52139.42255251677,187500.0,-21518.11379410193,-43629.57699651444,-52608.384502933564,-60132.60753543467,0.0,-23816.45426946333,0.176,0.938,0.22,192.0,0.0,0.0,0.0,0.0,0.0,0.0,0.0,0.0,0.0,1647985903.098852,0.0, 2022-03-22 22:51:43.098
153,44.0,85500.09405614068,115614.71111949816,0.0,-187500.02235174447,-42278.97283780251,-52212.71392258572,-48926.87337718885,-54674.93738829344,-52408.15757610292,187500.0,-22281.40351550621,-43801.148986953376,-53402.31846598607,-60685.00854790313,0.0,-24448.65100963724,0.176,0.938,0.22,192.0,0.0,0.0,0.0,0.0,0.0,0.0,0.0,0.0,0.0,1647985903.106853,0.0, 2022-03-22 22:51:43.106
154,46.0,86641.10590709519,91606.54593784166,0.0,-187500.02235174447,-42435.52445596748,-51745.1154285807,-48612.160815258125,-53423.5079197297,-52663.682718716,187500.0,-22067.072637924277,-44159.91683720552,-53159.93614911272,-60646.47414046218,0.0,-24020.39158587356,0.181,0.936,0.221,192.0,2.5,104.0,14.5,24.0,3.0,120.0,0.0,0.0,0.0,1647985903.115235,0.0, 2022-03-22 22:51:43.115
155,48.0,85602.93443237954,106172.37313656489,0.0,-187500.02235174447,-41419.63767047378,-51609.06036008124,-48255.47167724033,-54518.22930791728,-51945.54352111144,187500.0,-21639.170842071875,-43372.64369400069,-52739.43278067503,-60129.83591912221,0.0,-24085.77043840533,0.181,0.936,0.221,192.0,0.0,0.0,0.0,0.0,0.0,0.0,0.0,0.0,0.0,1647985903.121469,0.0, 2022-03-22 22:51:43.121
156,50.0,86170.40052061087,106250.06780029152,0.0,-187500.02235174447,-42907.2803744412,-52276.0364146276,-49129.38018195393,-53959.99449014598,-52835.99231672196,187500.0,-22554.51948100561,-44279.23044910794,-53672.43929772846,-61005.10788024758,0.0,-24432.915381540704,0.181,0.936,0.221,192.0,0.0,0.0,0.0,0.0,0.0,0.0,0.0,0.0,0.0,1647985903.128623,0.0, 2022-03-22 22:51:43.128
157,52.0,86296.33024887208,91415.86320589345,0.0,-187500.02235174447,-41465.68226405171,-51284.1554026789,-48030.724886742224,-53763.88028429512,-52129.096046578416,187500.0,-21515.31982604501,-43635.14258088381,-52606.26108721031,-60133.38984649061,0.0,-23820.09760380955,0.181,0.936,0.221,192.0,0.0,0.0,0.0,0.0,0.0,0.0,0.0,0.0,0.0,1647985903.136564,0.0, 2022-03-22 22:51:43.136
158,54.0,85496.24955609436,115604.60813100437,0.0,-187500.02235174447,-42258.0739567368,-52196.911239255816,-48902.509975732566,-54666.42137365596,-52392.42194800639,187500.0,-22276.59789044832,-43793.52704209412,-53396.93169557234,-60673.25153031964,0.0,-24456.518823685507,0.181,0.936,0.221,192.0,0.0,0.0,0.0,0.0,0.0,0.0,0.0,0.0,0.0,1647985903.143284,0.0, 2022-03-22 22:51:43.143
159,56.0,86632.85811339118,91738.77885803924,0.0,-187500.02235174447,-42449.89662765225,-51753.81025717381,-48611.71378036902,-53422.68090518485,-52658.89944540256,187500.0,-22078.69554504103,-44166.44354658646,-53172.698995196704,-60651.36917249789,0.0,-24033.869687780105,0.1835,0.933,0.2225,192.0,2.5,104.0,14.5,8.0,3.5,0.0,0.0,0.0,0.0,1647985903.152508,0.0, 2022-03-22 22:51:43.152
160,58.0,85603.35911552419,106000.24235251456,0.0,-187500.02235174447,-41410.4734552471,-51599.13618554309,-48232.561139173646,-54504.68415077736,-51936.44636111813,187500.0,-21643.395321773925,-43363.501830518464,-52736.3482399402,-60121.49871844039,0.0,-24092.453609997465,0.1835,0.933,0.2225,192.0,0.0,0.0,0.0,0.0,0.0,0.0,0.0,0.0,0.0,1647985903.15889,0.0, 2022-03-22 22:51:43.158
161,60.0,86162.4880030737,106416.56594473912,0.0,-187500.02235174447,-42900.999534249255,-52276.41639428335,-49111.90111778988,-53954.67477496562,-52835.76879927741,187500.0,-22578.61466152843,-44261.68432971052,-53672.23813202836,-60997.55299062169,0.0,-24442.861907823317,0.1835,0.933,0.2225,192.0,0.0,0.0,0.0,0.0,0.0,0.0,0.0,0.0,0.0,1647985903.167222,0.0, 2022-03-22 22:51:43.167
162,62.0,86292.35163835903,91325.69626876072,0.0,-187500.02235174447,-41450.86305747784,-51275.66173978588,-48004.21571781823,-53736.58880431519,-52134.84044490343,187500.0,-21548.64627702788,-43612.254394561576,-52612.05018902424,-60118.36947421664,0.0,-23824.076214322595,0.1835,0.933,0.2225,192.0,0.0,0.0,0.0,0.0,0.0,0.0,0.0,0.0,0.0,1647985903.176763,0.0, 2022-03-22 22:51:43.176
163,64.0,85489.74519845787,115608.49733453958,0.0,-187500.02235174447,-42240.84076176176,-52199.79461429055,-48891.8928971163,-54670.89172254703,-52398.54632598715,187500.0,-22303.397632050237,-43769.34245459348,-53383.52064889916,-60662.16506506981,0.0,-24457.971687075104,0.1835,0.933,0.2225,192.0,0.0,0.0,0.0,0.0,0.0,0.0,0.0,0.0,0.0,1647985903.182651,0.0, 2022-03-22 22:51:43.182
164,66.0,86642.2458460624,91851.47635358293,0.0,-187500.02235174447,-42451.84122941986,-51744.7130971805,-48614.28423098138,-53407.9064020999,-52669.00243389636,187500.0,-22108.0210337664,-44142.14720036354,-53166.3510997714,-60641.78027412657,0.0,-24041.71515008392,0.17975,0.9295,0.22225,192.0,2.5,64.0,14.0,120.0,3.0,120.0,0.0,0.0,0.0,1647985903.196183,0.0, 2022-03-22 22:51:43.196
165,68.0,85608.8576446602,105811.66068454512,0.0,-187500.02235174447,-41401.6221644428,-51593.928229085,-48238.79727587668,-54494.33529309456,-51942.369573398784,187500.0,-21658.929784170366,-43345.06164134284,-52722.40075140008,-60110.65812237956,0.0,-24084.20581629346,0.17975,0.9295,0.22225,192.0,0.0,0.0,0.0,0.0,0.0,0.0,0.0,0.0,0.0,1647985903.203481,0.0, 2022-03-22 22:51:43.203
166,70.0,86157.66002627135,106602.912438263,0.0,-187500.02235174447,-42888.30374339864,-52277.6904437173,-49110.87293754494,-53962.81080994736,-52845.00006973745,187500.0,-22598.395955371376,-44251.22371330544,-53667.34309999265,-60995.87660978754,0.0,-24442.861907823317,0.17975,0.9295,0.22225,192.0,0.0,0.0,0.0,0.0,0.0,0.0,0.0,0.0,0.0,1647985903.211562,0.0, 2022-03-22 22:51:43.211
167,72.0,86314.09988571405,91261.72557612964,0.0,-187500.02235174447,-41458.59676105938,-51271.459611828286,-48017.96204065825,-53722.39544658607,-52147.24566307612,187500.0,-21563.55489057957,-43616.50122600809,-52606.35049418813,-60121.45401495147,0.0,-23820.499935209744,0.17975,0.9295,0.22225,192.0,0.0,0.0,0.0,0.0,0.0,0.0,0.0,0.0,0.0,1647985903.219502,0.0, 2022-03-22 22:51:43.219
168,74.0,85500.04935265177,115581.3399650264,0.0,-187500.02235174447,-42220.03128767387,-52181.37677685938,-48881.52168768903,-54664.29795793271,-52387.63867469296,187500.0,-22296.3121290579,-43754.43384104178,-53372.25536969368,-60644.95422183922,0.0,-24453.680152139685,0.17975,0.9295,0.22225,192.0,0.0,0.0,0.0,0.0,0.0,0.0,0.0,0.0,0.0,1647985903.226509,0.0, 2022-03-22 22:51:43.226
169,76.0,86642.87169490715,91977.07080567729,0.0,-187500.02235174447,-42453.00352013153,-51752.84913216224,-48632.791475390375,-53420.51278597269,-52669.91885541903,187500.0,-22115.553571647837,-44140.761392207314,-53181.77380344556,-60641.2661840041,0.0,-24040.3740454166,0.177875,0.92775,0.222125,192.0,2.5,64.0,14.0,120.0,3.0,120.0,0.0,0.0,0.0,1647985903.23407,0.0, 2022-03-22 22:51:43.234
170,78.0,85616.94897615301,105659.19943561548,0.0,-187500.02235174447,-41402.78445515448,-51583.64642663556,-48235.846845608576,-54491.69778724883,-51939.79912278642,187500.0,-21657.745141714237,-43345.03928959838,-52727.00521075788,-60103.75143334287,0.0,-24078.88610111309,0.177875,0.92775,0.222125,192.0,0.0,0.0,0.0,0.0,0.0,0.0,0.0,0.0,0.0,1647985903.241972,0.0, 2022-03-22 22:51:43.241
171,80.0,86144.9865871652,106784.87798987364,0.0,-187500.02235174447,-42885.80034801964,-52275.20940008276,-49095.36082689295,-53968.84578095029,-52839.18861617907,187500.0,-22600.876999005915,-44251.290768538805,-53679.10011757614,-60993.06028998617,0.0,-24441.99018978956,0.177875,0.92775,0.222125,192.0,0.0,0.0,0.0,0.0,0.0,0.0,0.0,0.0,0.0,1647985903.249258,0.0, 2022-03-22 22:51:43.249
172,82.0,86319.73252531678,91136.01936531298,0.0,-187500.02235174447,-41459.08849943739,-51265.983434436734,-48005.73563644119,-53715.15348138255,-52145.94926189772,187500.0,-21564.247794657684,-43625.30781332348,-52614.97826754788,-60119.01767480584,0.0,-23816.409565974423,0.177875,0.92775,0.222125,192.0,0.0,0.0,0.0,0.0,0.0,0.0,0.0,0.0,0.0,1647985903.255525,0.0, 2022-03-22 22:51:43.255
173,84.0,85493.54499501527,115571.10286606583,0.0,-187500.02235174447,-42201.25582233141,-52163.11540163939,-48871.46340268415,-54654.70905956138,-52373.06533730809,187500.0,-22286.186788819647,-43748.98001539469,-53354.28456715162,-60628.458634431205,0.0,-24438.79389033245,0.177875,0.92775,0.222125,192.0,0.0,0.0,0.0,0.0,0.0,0.0,0.0,0.0,0.0,1647985903.263667,0.0, 2022-03-22 22:51:43.263
174,86.0,86643.6540059631,92100.2959728594,0.0,-187500.02235174447,-42449.15902008522,-51745.5624634698,-48633.50673121295,-53407.83934686653,-52661.604006481655,187500.0,-22114.61479838071,-44138.14623810604,-53170.37441377335,-60628.43628268675,0.0,-24039.14469947156,0.1799375,0.924875,0.2200625,192.0,2.5,88.0,14.0,104.0,3.0,104.0,0.0,0.0,0.0,1647985903.271607,0.0, 2022-03-22 22:51:43.271
175,88.0,85628.77304896987,105468.00261354478,0.0,-187500.02235174447,-41376.25293448602,-51571.285911951774,-48231.77882811771,-54479.89606617643,-51927.93034648065,187500.0,-21644.177632829866,-43340.41247849613,-52714.46588211846,-60086.40647964555,0.0,-24064.737446872885,0.1799375,0.924875,0.2200625,192.0,0.0,0.0,0.0,0.0,0.0,0.0,0.0,0.0,0.0,1647985903.278276,0.0, 2022-03-22 22:51:43.278
176,90.0,86150.32865409002,106939.17208184864,0.0,-187500.02235174447,-42873.37277810249,-52273.175391337325,-49113.91277479086,-53968.15287687217,-52817.88740371316,187500.0,-22584.89550172037,-44235.59984393118,-53663.87857960208,-60968.78629550771,0.0,-24443.666570623707,0.1799375,0.924875,0.2200625,192.0,0.0,0.0,0.0,0.0,0.0,0.0,0.0,0.0,0.0,1647985903.286275,0.0, 2022-03-22 22:51:43.286
177,92.0,86337.39040343648,91028.66393669414,0.0,-187500.02235174447,-41459.69199653769,-51267.59276003752,-48014.87749992341,-53697.96498989642,-52137.2544333046,187500.0,-21553.250736385675,-43614.355458540376,-52605.881107554575,-60103.90789555406,0.0,-23818.17535378639,0.1799375,0.924875,0.2200625,192.0,0.0,0.0,0.0,0.0,0.0,0.0,0.0,0.0,0.0,1647985903.294351,0.0, 2022-03-22 22:51:43.294
178,94.0,85487.24180307887,115542.82790932988,0.0,-187500.02235174447,-42197.47837751846,-52184.818945505496,-48873.29624572948,-54678.71483310638,-52365.68926163784,187500.0,-22276.106152070304,-43740.84398041296,-53356.16211368587,-60619.13795699334,0.0,-24441.006713033523,0.1799375,0.924875,0.2200625,192.0,0.0,0.0,0.0,0.0,0.0,0.0,0.0,0.0,0.0,1647985903.302298,0.0, 2022-03-22 22:51:43.302
179,96.0,86644.25750306339,92225.9127766982,0.0,-187500.02235174447,-42461.13955511327,-51767.020138146894,-48632.94793760156,-53411.59443993503,-52684.5368962928,187500.0,-22134.910182346128,-44156.11704064811,-53193.79904196251,-60647.01058232911,0.0,-24048.264211209324,0.18296875,0.9274375,0.21703125,192.0,2.5,104.0,14.5,8.0,3.0,88.0,0.0,0.0,0.0,1647985903.30834,0.0, 2022-03-22 22:51:43.308
180,98.0,85642.78759274335,105315.45195763731,0.0,-187500.02235174447,-41376.87878333077,-51565.83208630468,-48207.661295850434,-54457.96900486577,-51927.93034648065,187500.0,-21639.59552521653,-43328.90133010165,-52696.22685864292,-60070.179113171,0.0,-24062.39051370508,0.18296875,0.9274375,0.21703125,192.0,0.0,0.0,0.0,0.0,0.0,0.0,0.0,0.0,0.0,1647985903.323804,0.0, 2022-03-22 22:51:43.323
181,100.0,86137.16347660584,107114.6332758228,0.0,-187500.02235174447,-42880.27946713918,-52289.51451653415,-49120.86416731646,-53977.428850821125,-52826.24695613945,187500.0,-22592.20452215725,-44226.39092521559,-53663.78917262425,-60966.34995536208,0.0,-24448.136919514767,0.18296875,0.9274375,0.21703125,192.0,0.0,0.0,0.0,0.0,0.0,0.0,0.0,0.0,0.0,1647985903.332262,0.0, 2022-03-22 22:51:43.332
182,102.0,86344.81118259564,90914.24535682742,0.0,-187500.02235174447,-41476.522860112535,-51280.64617879941,-48014.49752026767,-53689.35956828113,-52165.97642492967,187500.0,-21569.56750983805,-43626.69362147971,-52620.7226658729,-60116.46957593794,0.0,-23818.26476076421,0.18296875,0.9274375,0.21703125,192.0,0.0,0.0,0.0,0.0,0.0,0.0,0.0,0.0,0.0,1647985903.338603,0.0, 2022-03-22 22:51:43.338
183,104.0,85490.32634381371,115553.15441526825,0.0,-187500.02235174447,-42171.21507778348,-52166.490515052144,-48846.40709714974,-54662.19689395391,-52375.03229082016,187500.0,-22273.468646224577,-43737.44651525575,-53355.67037530785,-60617.66274185929,0.0,-24439.084463010367,0.18296875,0.9274375,0.21703125,192.0,0.0,0.0,0.0,0.0,0.0,0.0,0.0,0.0,0.0,1647985903.346451,0.0, 2022-03-22 22:51:43.346
184,106.0,86647.6549682206,92375.98238897114,0.0,-187500.02235174447,-42466.83924994937,-51775.91613244011,-48622.88965259668,-53407.57112593307,-52693.03055918581,187500.0,-22131.35625497773,-44154.1724388805,-53200.12458564337,-60645.96005033971,0.0,-24050.29821995476,0.183484375,0.92771875,0.213515625,192.0,2.5,96.0,14.5,0.0,3.0,72.0,0.0,0.0,0.0,1647985903.35441,0.0, 2022-03-22 22:51:43.354
185,108.0,85643.90517996612,105194.50666838964,0.0,-187500.02235174447,-41357.14219297674,-51561.83112404718,-48193.95967649933,-54447.64249892742,-51947.44341939013,187500.0,-21642.791824673637,-43341.68652793008,-52706.57571632573,-60081.60085458766,0.0,-24060.71413287093,0.183484375,0.92771875,0.213515625,192.0,0.0,0.0,0.0,0.0,0.0,0.0,0.0,0.0,0.0,1647985903.361364,0.0, 2022-03-22 22:51:43.361
186,110.0,86126.45699101174,107324.00206613564,0.0,-187500.02235174447,-42879.96654271681,-52289.20159211178,-49117.26553645916,-53982.03331017892,-52840.75323829094,187500.0,-22596.697222792773,-44232.15767528507,-53666.7172511479,-60973.05547869868,0.0,-24448.15927125922,0.183484375,0.92771875,0.213515625,192.0,0.0,0.0,0.0,0.0,0.0,0.0,0.0,0.0,0.0,1647985903.369127,0.0, 2022-03-22 22:51:43.369
187,112.0,86343.44772618386,90871.8440975957,0.0,-187500.02235174447,-41482.64723809329,-51275.505277574695,-48011.703552210754,-53678.630730942576,-52186.85295425093,187500.0,-21577.81530354205,-43641.266958864566,-52635.6759829135,-60123.8903550971,0.0,-23821.796336388157,0.183484375,0.92771875,0.213515625,192.0,0.0,0.0,0.0,0.0,0.0,0.0,0.0,0.0,0.0,1647985903.376156,0.0, 2022-03-22 22:51:43.376
188,114.0,85483.10673035464,115545.59952564236,0.0,-187500.02235174447,-42154.58537990873,-52155.69462248023,-48837.80167553445,-54659.76055380828,-52379.63675017795,187500.0,-22272.842797379828,-43739.9722623792,-53351.31178513906,-60612.83476505694,0.0,-24437.63159962077,0.183484375,0.92771875,0.213515625,192.0,0.0,0.0,0.0,0.0,0.0,0.0,0.0,0.0,0.0,1647985903.384148,0.0, 2022-03-22 22:51:43.384
189,116.0,86633.95334886949,92503.02970445513,0.0,-187500.02235174447,-42482.9772094461,-51782.68871101007,-48642.40272550616,-53410.47685271226,-52711.82837627273,187500.0,-22146.734255162984,-44170.466860588414,-53206.38307409085,-60659.572262712994,0.0,-24054.38858919008,0.183484375,0.92771875,0.213515625,192.0,0.0,0.0,0.0,0.0,0.0,0.0,0.0,0.0,0.0,1647985903.390795,0.0, 2022-03-22 22:51:43.390
190,118.0,85645.3133398668,105007.06493938743,0.0,-187500.02235174447,-41350.4590213846,-51554.5668070992,-48175.76535651271,-54436.95836507778,-51949.94681476913,187500.0,-21637.18153681535,-43348.347347777766,-52689.7895562398,-60079.253921419855,0.0,-24054.36623744562,0.182,0.934,0.212,192.0,2.5,88.0,14.5,24.0,3.0,80.0,0.0,0.0,0.0,1647985903.398782,0.0, 2022-03-22 22:51:43.398
191,120.0,86119.59500546397,107474.7198789978,0.0,-187500.02235174447,-42874.15508915843,-52285.13357462092,-49096.25489667117,-53978.74760374399,-52838.22749116749,187500.0,-22601.05581296156,-44236.9409485985,-53680.8212018992,-60974.06130719916,0.0,-24448.69571312615,0.182,0.934,0.212,192.0,0.0,0.0,0.0,0.0,0.0,0.0,0.0,0.0,0.0,1647985903.406615,0.0, 2022-03-22 22:51:43.406
192,122.0,86356.63525541249,90748.10484029113,0.0,-187500.02235174447,-41484.81535730545,-51281.22732415525,-48006.31678179703,-53670.315882005205,-52184.103689682925,187500.0,-21578.731725064725,-43652.3534241144,-52636.7265149029,-60130.10414005568,0.0,-23817.370690986,0.182,0.934,0.212,192.0,0.0,0.0,0.0,0.0,0.0,0.0,0.0,0.0,0.0,1647985903.413852,0.0, 2022-03-22 22:51:43.413
193,124.0,85479.95513438644,115536.23414471558,0.0,-187500.02235174447,-42142.94012104751,-52144.69756420822,-48816.9698497021,-54665.05791724419,-52364.72813662626,187500.0,-22260.5046344405,-43734.18316056528,-53340.85116873398,-60605.65985508679,0.0,-24438.279800209977,0.182,0.934,0.212,192.0,0.0,0.0,0.0,0.0,0.0,0.0,0.0,0.0,0.0,1647985903.421381,0.0, 2022-03-22 22:51:43.421
194,126.0,86638.446049505,92641.29759565563,0.0,-187500.02235174447,-42481.18906988968,-51785.415623833615,-48633.551434701854,-53411.99677133522,-52712.990666984406,187500.0,-22155.96552562303,-44184.30259040625,-53216.24019339564,-60671.99983263014,0.0,-24065.072723039717,0.182,0.934,0.212,192.0,0.0,0.0,0.0,0.0,0.0,0.0,0.0,0.0,0.0,1647985903.431001,0.0, 2022-03-22 22:51:43.431
195,128.0,85660.55722958532,104910.37129287378,0.0,-187500.02235174447,-41354.16941096418,-51542.04983020423,-48178.06758619161,-54441.62987966894,-51939.79912278642,187500.0,-21627.45852797729,-43345.97806286551,-52692.60587604116,-60072.03430796079,0.0,-24054.634458379085,0.19,0.934,0.212,192.0,2.5,120.0,14.5,24.0,3.0,80.0,0.0,0.0,0.0,1647985903.443049,0.0, 2022-03-22 22:51:43.443
196,130.0,86120.51142698663,107644.92841302496,0.0,-187500.02235174447,-42884.01220846322,-52293.96251368076,-49116.48322540322,-54004.005074978486,-52829.04092419636,187500.0,-22593.18799891329,-44230.23542526191,-53677.580198953176,-60974.15071417698,0.0,-24460.00569582053,0.19,0.934,0.212,192.0,0.0,0.0,0.0,0.0,0.0,0.0,0.0,0.0,0.0,1647985903.451043,0.0, 2022-03-22 22:51:43.451
197,132.0,86365.15127004997,90689.90089772952,0.0,-187500.02235174447,-41494.001924276585,-51272.24192288422,-47992.90573512384,-53660.324652233685,-52186.29416063955,187500.0,-21589.169989725357,-43660.19888641821,-52645.73426791839,-60128.695980155,0.0,-23819.65056892044,0.19,0.934,0.212,192.0,0.0,0.0,0.0,0.0,0.0,0.0,0.0,0.0,0.0,1647985903.459277,0.0, 2022-03-22 22:51:43.459
198,134.0,85485.6324774781,115525.50530737704,0.0,-187500.02235174447,-42132.345394175696,-52134.48281699215,-48799.93782042716,-54666.51078063378,-52351.94293879783,187500.0,-22253.687352381632,-43727.81291339552,-53323.50621503666,-60591.57825607995,0.0,-24438.07863450988,0.19,0.934,0.212,192.0,0.0,0.0,0.0,0.0,0.0,0.0,0.0,0.0,0.0,1647985903.466304,0.0, 2022-03-22 22:51:43.466
199,136.0,86637.61903496017,92805.58291740216,0.0,-187500.02235174447,-42496.2317939081,-51795.11628092722,-48646.73896393049,-53423.329105774064,-52713.90708850707,187500.0,-22165.06268561634,-44187.74475905237,-53229.87475751338,-60670.74813494064,0.0,-24066.257365495847,0.19,0.934,0.212,192.0,0.0,0.0,0.0,0.0,0.0,0.0,0.0,0.0,0.0,1647985903.473557,0.0, 2022-03-22 22:51:43.473
200,138.0,85677.65631409363,104752.70208748605,0.0,-187500.02235174447,-41345.6086928378,-51534.24907138933,-48168.322225609096,-54431.43748419732,-51936.89339600723,187500.0,-21625.35746399849,-43345.419269254126,-52694.41636734204,-60063.65240379005,0.0,-24048.86770830962,0.196,0.926,0.216,192.0,3.0,16.0,14.0,120.0,3.0,96.0,0.0,0.0,0.0,1647985903.481592,0.0, 2022-03-22 22:51:43.481
201,140.0,86124.60179622195,107793.09812701918,0.0,-187500.02235174447,-42863.38154833097,-52284.88770543191,-49113.39868466839,-54005.12266220125,-52810.37721757618,187500.0,-22588.337670366487,-44219.50658792336,-53677.28962627526,-60959.42091458094,0.0,-24460.87741385429,0.196,0.926,0.216,192.0,0.0,0.0,0.0,0.0,0.0,0.0,0.0,0.0,0.0,1647985903.489732,0.0, 2022-03-22 22:51:43.489
202,142.0,86384.641991215,90599.39868442997,0.0,-187500.02235174447,-41509.04464829501,-51278.56746656507,-48019.14668311438,-53658.89414058854,-52179.18630590276,187500.0,-21582.95620476677,-43661.11530794088,-52648.5282359753,-60131.06526506726,0.0,-23823.271551522204,0.196,0.926,0.216,192.0,0.0,0.0,0.0,0.0,0.0,0.0,0.0,0.0,0.0,1647985903.495743,0.0, 2022-03-22 22:51:43.495
203,144.0,85498.28356483979,115487.99908018102,0.0,-187500.02235174447,-42125.5951673502,-52129.297212278514,-48810.53254729898,-54679.653606373504,-52339.29185143612,187500.0,-22245.506613910988,-43717.39700047935,-53329.67529650633,-60583.97866296514,0.0,-24431.50722164002,0.196,0.926,0.216,192.0,0.0,0.0,0.0,0.0,0.0,0.0,0.0,0.0,0.0,1647985903.504706,0.0, 2022-03-22 22:51:43.504
204,146.0,86661.20012536051,92925.00828802685,0.0,-187500.02235174447,-42493.43782585119,-51780.609998775726,-48643.27444353992,-53403.54781193112,-52700.07135868924,187500.0,-22159.362990780235,-44183.6320380726,-53231.17115869179,-60665.13784708236,0.0,-24072.694667898973,0.196,0.926,0.216,192.0,0.0,0.0,0.0,0.0,0.0,0.0,0.0,0.0,0.0,1647985903.511352,0.0, 2022-03-22 22:51:43.511
205,148.0,85689.86036656624,104548.0271635088,0.0,-187500.02235174447,-41329.76130601899,-51526.47066431888,-48147.065716632096,-54425.8495480835,-51913.69228526262,187500.0,-21606.17966725584,-43335.15981854914,-52674.59037001018,-60046.374505326094,0.0,-24045.537298385774,0.192,0.924,0.218,192.0,3.0,0.0,14.0,112.0,3.0,104.0,0.0,0.0,0.0,1647985903.519513,0.0, 2022-03-22 22:51:43.519
206,150.0,86117.13631357388,108007.07137668984,0.0,-187500.02235174447,-42860.94520818535,-52308.82642374354,-49110.560013122566,-54034.22463348206,-52807.04680765233,187500.0,-22593.81384775804,-44224.89335833709,-53677.28962627526,-60964.42770533892,0.0,-24465.99596333456,0.192,0.924,0.218,192.0,0.0,0.0,0.0,0.0,0.0,0.0,0.0,0.0,0.0,1647985903.52603,0.0, 2022-03-22 22:51:43.526
207,152.0,86397.44954078789,90550.8730472175,0.0,-187500.02235174447,-41509.75990411758,-51280.37795786595,-48019.34784881448,-53655.92135857599,-52185.154221672325,187500.0,-21588.99117576971,-43676.24743893712,-52657.98302387989,-60141.7941024058,0.0,-23828.45715623584,0.192,0.924,0.218,192.0,0.0,0.0,0.0,0.0,0.0,0.0,0.0,0.0,0.0,1647985903.533992,0.0, 2022-03-22 22:51:43.533
208,154.0,85496.49542528337,115484.6016150238,0.0,-187500.02235174447,-42105.21037640696,-52120.624735429854,-48786.57147724289,-54675.98792028284,-52326.9983919857,187500.0,-22237.41528241817,-43715.58650917847,-53311.27981081961,-60577.362546606375,0.0,-24433.80945131892,0.192,0.924,0.218,192.0,0.0,0.0,0.0,0.0,0.0,0.0,0.0,0.0,0.0,1647985903.542139,0.0, 2022-03-22 22:51:43.542
209,156.0,86662.98826491693,93085.44910972704,0.0,-187500.02235174447,-42491.202651405656,-51782.66635926561,-48646.89542614167,-53411.48268121275,-52698.32792262172,187500.0,-22167.208453084048,-44187.00715148535,-53230.031219724566,-60665.27195754909,0.0,-24081.188330791992,0.192,0.924,0.218,192.0,0.0,0.0,0.0,0.0,0.0,0.0,0.0,0.0,0.0,1647985903.548637,0.0, 2022-03-22 22:51:43.548
210,158.0,85696.14120675817,104367.00038516527,0.0,-187500.02235174447,-41327.056744939895,-51523.49788230633,-48153.39126031295,-54425.51427191666,-51912.93232595114,187500.0,-21605.46441143327,-43346.87213264372,-52669.74004146338,-60048.72143849391,0.0,-24043.5256413848,0.19,0.928,0.224,192.0,2.5,120.0,14.5,0.0,3.5,0.0,0.0,0.0,0.0,1647985903.555814,0.0, 2022-03-22 22:51:43.555
211,160.0,86105.98279309068,108184.4324689427,0.0,-187500.02235174447,-42871.04819667914,-52308.28998187662,-49116.75144633668,-54039.32083121787,-52806.77858671887,187500.0,-22600.36290888344,-44227.62027116064,-53677.647254186544,-60967.78046700722,0.0,-24472.65678318224,0.19,0.928,0.224,192.0,0.0,0.0,0.0,0.0,0.0,0.0,0.0,0.0,0.0,1647985903.57156,0.0, 2022-03-22 22:51:43.571
212,162.0,86407.1949013704,90446.91508375588,0.0,-187500.02235174447,-41525.58493919193,-51284.58008582355,-48027.34977332947,-53648.03119278327,-52187.545858329046,187500.0,-21591.91925429336,-43679.3096279275,-52662.76629719333,-60141.01179134987,0.0,-23825.55142945665,0.19,0.928,0.224,192.0,0.0,0.0,0.0,0.0,0.0,0.0,0.0,0.0,0.0,1647985903.578193,0.0, 2022-03-22 22:51:43.578
213,164.0,85493.00855314833,115421.30147472638,0.0,-187500.02235174447,-42091.12877740011,-52121.51880520807,-48778.77071842799,-54683.788679097735,-52323.17624368385,187500.0,-22226.775852057443,-43709.216262008704,-53314.23024108771,-60571.819313981454,0.0,-24425.60636110382,0.19,0.928,0.224,192.0,0.0,0.0,0.0,0.0,0.0,0.0,0.0,0.0,0.0,1647985903.586437,0.0, 2022-03-22 22:51:43.586
214,166.0,86648.97372114345,93221.68299218216,0.0,-187500.02235174447,-42505.9324510017,-51799.474871096005,-48653.48919075599,-53418.81405339409,-52709.973181482936,187500.0,-22170.87413917472,-44195.05377948926,-53246.83973155496,-60678.79476294456,0.0,-24087.49152272839,0.19,0.928,0.224,192.0,0.0,0.0,0.0,0.0,0.0,0.0,0.0,0.0,0.0,1647985903.59436,0.0, 2022-03-22 22:51:43.594
215,168.0,85697.21409049202,104186.91238008886,0.0,-187500.02235174447,-41331.14711417522,-51511.07031238917,-48145.23287358676,-54407.49876588568,-51927.483311591546,187500.0,-21606.93962656732,-43351.00720536795,-52682.25701835835,-60050.26370886132,0.0,-24037.4236151485,0.19,0.926,0.222,192.0,2.5,120.0,14.0,120.0,3.0,120.0,0.0,0.0,0.0,1647985903.601402,0.0, 2022-03-22 22:51:43.601
216,170.0,86100.5736709325,108332.44572072577,0.0,-187500.02235174447,-42859.29117909565,-52302.27736261814,-49115.499748647184,-54037.3538777058,-52802.196479105536,187500.0,-22591.15399016785,-44216.936137311,-53676.21674254141,-60955.33054534561,0.0,-24471.71800991512,0.19,0.926,0.222,192.0,0.0,0.0,0.0,0.0,0.0,0.0,0.0,0.0,0.0,1647985903.609119,0.0, 2022-03-22 22:51:43.609
217,172.0,86413.0510584177,90387.3923882714,0.0,-187500.02235174447,-41521.82984612344,-51286.56939108007,-48011.32357255502,-53632.764951320285,-52198.56526834551,187500.0,-21593.5956351275,-43685.0093227636,-52660.91110240354,-60143.6492971956,0.0,-23827.831307391087,0.19,0.926,0.222,192.0,0.0,0.0,0.0,0.0,0.0,0.0,0.0,0.0,0.0,1647985903.616862,0.0, 2022-03-22 22:51:43.616
218,174.0,85483.7325791994,115391.05956447836,0.0,-187500.02235174447,-42067.257114321845,-52107.12428177885,-48750.74163088103,-54661.19106545342,-52320.78460702713,187500.0,-22223.646607833696,-43704.67885788428,-53305.87068866142,-60562.65509875478,0.0,-24424.064090736403,0.19,0.926,0.222,192.0,0.0,0.0,0.0,0.0,0.0,0.0,0.0,0.0,0.0,1647985903.623981,0.0, 2022-03-22 22:51:43.623
219,176.0,86643.2516745629,93351.032537345,0.0,-187500.02235174447,-42513.71085807215,-51800.39129261867,-48651.74575468848,-53410.320390501074,-52719.85265253218,187500.0,-22182.72056373603,-44207.59310812868,-53250.080734500974,-60682.23693159067,0.0,-24088.67616518452,0.19,0.926,0.222,192.0,0.0,0.0,0.0,0.0,0.0,0.0,0.0,0.0,0.0,1647985903.630916,0.0, 2022-03-22 22:51:43.630
220,178.0,85698.93517481508,103982.1480491338,0.0,-187500.02235174447,-41324.70981177209,-51507.67284723197,-48144.31645206409,-54405.062425740056,-51924.57758481236,187500.0,-21594.95909153928,-43351.45424025706,-52671.461125786445,-60041.3230110792,0.0,-24030.96396100092,0.191,0.927,0.223,192.0,3.0,0.0,14.5,0.0,3.5,0.0,0.0,0.0,0.0,1647985903.638451,0.0, 2022-03-22 22:51:43.638
221,180.0,86080.74767360064,108495.0546616381,0.0,-187500.02235174447,-42863.40390007543,-52308.58055455453,-49122.51819640616,-54050.831979612354,-52810.53367978736,187500.0,-22599.80411527206,-44231.867102607146,-53682.78815541127,-60969.30038563018,0.0,-24472.343858759865,0.191,0.927,0.223,192.0,0.0,0.0,0.0,0.0,0.0,0.0,0.0,0.0,0.0,1647985903.646695,0.0, 2022-03-22 22:51:43.646
222,182.0,86422.5505498112,90285.26726785507,0.0,-187500.02235174447,-41535.3526515189,-51276.131126419445,-48016.44212203528,-53612.76014003279,-52205.29314342656,187500.0,-21599.675309619342,-43702.62249739438,-52674.85859094365,-60150.55598623229,0.0,-23828.43480449138,0.191,0.927,0.223,192.0,0.0,0.0,0.0,0.0,0.0,0.0,0.0,0.0,0.0,1647985903.654508,0.0, 2022-03-22 22:51:43.654
223,184.0,85485.72188445591,115343.96443891102,0.0,-187500.02235174447,-42064.597256731664,-52098.965895052665,-48759.99525308553,-54672.85867605909,-52314.86139474648,187500.0,-22213.945950740093,-43705.43881719576,-53308.57524974051,-60556.03898239601,0.0,-24426.20985820411,0.191,0.927,0.223,192.0,0.0,0.0,0.0,0.0,0.0,0.0,0.0,0.0,0.0,1647985903.661305,0.0, 2022-03-22 22:51:43.661
224,186.0,86647.07382286475,93499.31401006151,0.0,-187500.02235174447,-42521.95865177616,-51814.91992651462,-48671.929379931615,-53425.67603894187,-52726.37936191313,187500.0,-22190.901302206672,-44211.72818085292,-53277.9757115812,-60687.891922937866,0.0,-24093.81706640924,0.191,0.927,0.223,192.0,0.0,0.0,0.0,0.0,0.0,0.0,0.0,0.0,0.0,1647985903.669117,0.0, 2022-03-22 22:51:43.669
225,188.0,85715.76603838993,103823.87534664576,0.0,-187500.02235174447,-41321.26764312597,-51499.24623957232,-48137.09683860503,-54388.70094879877,-51925.4045993572,187500.0,-21595.093202006006,-43349.66610070063,-52677.47374504492,-60041.36771456811,0.0,-24031.343940656658,0.1925,0.9275,0.2245,192.0,3.0,8.0,14.5,0.0,3.5,8.0,0.0,0.0,0.0,1647985903.677271,0.0, 2022-03-22 22:51:43.677
226,190.0,86078.37838868838,108657.395381617,0.0,-187500.02235174447,-42858.553571528624,-52292.71081599127,-49118.42782717083,-54047.32275573287,-52800.02835989337,187500.0,-22595.22200765872,-44212.10816050866,-53690.07482410369,-60950.05553365416,0.0,-24479.965803619125,0.1925,0.9275,0.2245,192.0,0.0,0.0,0.0,0.0,0.0,0.0,0.0,0.0,0.0,1647985903.690689,0.0, 2022-03-22 22:51:43.690
227,192.0,86424.71866902336,90204.8903947938,0.0,-187500.02235174447,-41541.58878822193,-51272.93482696234,-48023.84054944999,-53605.51817482927,-52219.06181801103,187500.0,-21609.286559735127,-43702.53309041657,-52685.11804164863,-60145.43743675202,0.0,-23829.08300508058,0.1925,0.9275,0.2245,192.0,0.0,0.0,0.0,0.0,0.0,0.0,0.0,0.0,0.0,1647985903.699025,0.0, 2022-03-22 22:51:43.699
228,194.0,85476.2223930624,115297.83043835527,0.0,-187500.02235174447,-42055.81302116073,-52087.67826410273,-48759.70468040761,-54675.38442318254,-52319.97994422674,187500.0,-22212.001348972484,-43698.6662386258,-53298.00287461316,-60545.60071773538,0.0,-24425.762823315006,0.1925,0.9275,0.2245,192.0,0.0,0.0,0.0,0.0,0.0,0.0,0.0,0.0,0.0,1647985903.707161,0.0, 2022-03-22 22:51:43.707
229,196.0,86641.24001756193,93674.2611139132,0.0,-187500.02235174447,-42530.49701815809,-51813.26589742493,-48681.67474051413,-53422.52444297367,-52745.557158655785,187500.0,-22209.140325682205,-44225.31804148174,-53297.1311565794,-60697.7266904982,0.0,-24102.891874658093,0.1925,0.9275,0.2245,192.0,0.0,0.0,0.0,0.0,0.0,0.0,0.0,0.0,0.0,1647985903.714814,0.0, 2022-03-22 22:51:43.714
230,198.0,85721.95747160405,103670.20710351552,0.0,-187500.02235174447,-41306.76136097448,-51482.9518178644,-48123.86460588749,-54373.50176256916,-51926.8574627468,187500.0,-21587.292443191105,-43348.36969952223,-52670.56705600823,-60027.84490917265,0.0,-24028.974655744398,0.19425,0.92575,0.22425,192.0,3.0,16.0,14.0,112.0,3.5,0.0,0.0,0.0,0.0,1647985903.722749,0.0, 2022-03-22 22:51:43.722
231,200.0,86070.6670368513,108857.93523287002,0.0,-187500.02235174447,-42855.33492032706,-52306.367731853454,-49122.69701036179,-54061.739630906544,-52801.70474072752,187500.0,-22594.57380706952,-44209.51535815184,-53690.946542137455,-60949.54144353169,0.0,-24486.09018159988,0.19425,0.92575,0.22425,192.0,0.0,0.0,0.0,0.0,0.0,0.0,0.0,0.0,0.0,1647985903.72996,0.0, 2022-03-22 22:51:43.729
232,202.0,86435.17928542844,90166.22187688612,0.0,-187500.02235174447,-41560.90069543132,-51284.66949280137,-48030.59077627549,-53595.63870378002,-52226.70611461474,187500.0,-21614.069833048565,-43712.88194809937,-52679.060718901244,-60152.165311833065,0.0,-23838.76131042973,0.19425,0.92575,0.22425,192.0,0.0,0.0,0.0,0.0,0.0,0.0,0.0,0.0,0.0,1647985903.736532,0.0, 2022-03-22 22:51:43.736
233,204.0,85480.2233553199,115287.99567079492,0.0,-187500.02235174447,-42039.33978549716,-52073.35079590688,-48735.83301732934,-54663.649757343504,-52308.35703710998,187500.0,-22198.813819743853,-43687.42331116478,-53300.9309531368,-60530.26742103904,0.0,-24426.20985820411,0.19425,0.92575,0.22425,192.0,0.0,0.0,0.0,0.0,0.0,0.0,0.0,0.0,0.0,1647985903.743008,0.0, 2022-03-22 22:51:43.743
234,206.0,86636.63555820413,93861.00993883728,0.0,-187500.02235174447,-42536.33082346092,-51816.23867943748,-48666.52025777343,-53409.38161723395,-52751.27920523634,187500.0,-22214.81766877385,-44225.89918683758,-53308.12821485141,-60695.84914396396,0.0,-24110.04443288379,0.19425,0.92575,0.22425,192.0,0.0,0.0,0.0,0.0,0.0,0.0,0.0,0.0,0.0,1647985903.751117,0.0, 2022-03-22 22:51:43.751
235,208.0,85726.20430305056,103505.430043391,0.0,-187500.02235174447,-41293.1938520901,-51478.57087595116,-48112.91225110439,-54357.36380307243,-51930.56785232638,187500.0,-21582.822094300045,-43350.40370826766,-52664.666195472026,-60023.598077726136,0.0,-24021.978559729883,0.194125,0.923875,0.223125,192.0,3.0,8.0,14.0,104.0,3.0,120.0,0.0,0.0,0.0,1647985903.75905,0.0, 2022-03-22 22:51:43.759
236,210.0,86059.66997857929,109047.92506074012,0.0,-187500.02235174447,-42842.79559168763,-52300.4445195728,-49096.076082715525,-54051.18960752364,-52806.13038612967,187500.0,-22597.2336646597,-44209.69417210748,-53695.5733532397,-60948.40150456447,0.0,-24491.2310828246,0.194125,0.923875,0.223125,192.0,0.0,0.0,0.0,0.0,0.0,0.0,0.0,0.0,0.0,1647985903.766104,0.0, 2022-03-22 22:51:43.766
237,212.0,86437.28034940724,90097.04322779697,0.0,-187500.02235174447,-41561.63830299834,-51280.534420077136,-48021.33715407099,-53576.5950175041,-52237.83728335349,187500.0,-21618.02609181715,-43716.99466907915,-52695.153974909066,-60153.23819556692,0.0,-23842.136423842483,0.194125,0.923875,0.223125,192.0,0.0,0.0,0.0,0.0,0.0,0.0,0.0,0.0,0.0,1647985903.773762,0.0, 2022-03-22 22:51:43.773
238,214.0,85466.05234933524,115261.64296408212,0.0,-187500.02235174447,-42030.15321852604,-52076.48004013062,-48724.12070323476,-54670.13176323554,-52321.87984250544,187500.0,-22206.011081458462,-43692.1618809893,-53297.42172925732,-60534.89423214129,0.0,-24427.03687274896,0.194125,0.923875,0.223125,192.0,0.0,0.0,0.0,0.0,0.0,0.0,0.0,0.0,0.0,1647985903.781711,0.0, 2022-03-22 22:51:43.781
239,216.0,86630.55588371228,94026.45755129548,0.0,-187500.02235174447,-42551.41825096825,-51825.96168827554,-48683.30641785937,-53418.47877722726,-52766.54544669932,187500.0,-22226.284113679423,-44238.41616373255,-53310.78807244159,-60709.57311505951,0.0,-24120.57210452224,0.194125,0.923875,0.223125,192.0,0.0,0.0,0.0,0.0,0.0,0.0,0.0,0.0,0.0,1647985903.789596,0.0, 2022-03-22 22:51:43.789
240,218.0,85740.71058520206,103348.40903859246,0.0,-187500.02235174447,-41295.943116658105,-51471.97711133684,-48097.69071313032,-54351.70881172524,-51941.63196583176,187500.0,-21584.61023385647,-43359.14324034968,-52658.2288930689,-60024.08981610416,0.0,-24024.50430685333,0.1950625,0.9239375,0.2235625,192.0,3.0,16.0,14.0,112.0,3.5,0.0,0.0,0.0,0.0,1647985903.796172,0.0, 2022-03-22 22:51:43.796
241,220.0,86061.77104255809,109209.19289698516,0.0,-187500.02235174447,-42855.44667904934,-52303.372598096445,-49114.13629223541,-54068.84748564333,-52804.699874484526,187500.0,-22594.216179158237,-44207.32488719522,-53690.45480375944,-60943.08178938411,0.0,-24500.216484095632,0.1950625,0.9239375,0.2235625,192.0,0.0,0.0,0.0,0.0,0.0,0.0,0.0,0.0,0.0,1647985903.803458,0.0, 2022-03-22 22:51:43.803
242,222.0,86450.06554723567,90009.87142442125,0.0,-187500.02235174447,-41592.08137894648,-51289.0057312257,-48048.15924741737,-53585.42395656395,-52250.26485327064,187500.0,-21619.210734273285,-43726.82943663949,-52701.81479475675,-60159.47433226995,0.0,-23849.19957509036,0.1950625,0.9239375,0.2235625,192.0,0.0,0.0,0.0,0.0,0.0,0.0,0.0,0.0,0.0,1647985903.819943,0.0, 2022-03-22 22:51:43.819
243,224.0,85467.39345400257,115185.46821897844,0.0,-187500.02235174447,-42022.57597715568,-52064.25363591357,-48736.19064524063,-54680.212399984885,-52312.49210983421,187500.0,-22192.91295920765,-43679.13081397186,-53284.0777378175,-60519.11390055584,0.0,-24433.384768174263,0.1950625,0.9239375,0.2235625,192.0,0.0,0.0,0.0,0.0,0.0,0.0,0.0,0.0,0.0,1647985903.826177,0.0, 2022-03-22 22:51:43.826
244,226.0,86599.66577287504,94160.09863139376,0.0,-187500.02235174447,-42574.64171345731,-51837.51754015894,-48707.91568850466,-53435.73432394676,-52780.78350791735,187500.0,-22244.52313715496,-44243.244140534895,-53324.824967959525,-60713.99876046166,0.0,-24132.329122105733,0.1950625,0.9239375,0.2235625,192.0,0.0,0.0,0.0,0.0,0.0,0.0,0.0,0.0,0.0,1647985903.83435,0.0, 2022-03-22 22:51:43.834
245,228.0,85684.13831998568,103200.88752518744,0.0,-187500.02235174447,-41299.027657392944,-51471.66418691447,-48110.52061444767,-54352.26760533662,-51963.80489633142,187500.0,-21609.35361496849,-43376.13056613572,-52650.31637553172,-60029.83421442917,0.0,-24030.56162960072,0.19553125,0.92296875,0.2217812499999999,192.0,3.0,16.0,14.0,104.0,3.0,112.0,0.0,0.0,0.0,1647985903.84191,0.0, 2022-03-22 22:51:43.841
246,230.0,85968.20664026817,109363.4199337268,0.0,-187500.02235174447,-42843.82377193258,-52307.03828418712,-49106.11201597596,-54076.58118922487,-52829.242089896456,187500.0,-22632.30355171008,-44226.32386998223,-53708.760882468334,-60949.87671969852,0.0,-24505.49149578709,0.19553125,0.92296875,0.2217812499999999,192.0,0.0,0.0,0.0,0.0,0.0,0.0,0.0,0.0,0.0,1647985903.84869,0.0, 2022-03-22 22:51:43.848
247,232.0,86353.34954897757,89951.37690918171,0.0,-187500.02235174447,-41589.10859693392,-51291.46442311579,-48050.77440151863,-53574.13632561402,-52294.1413276364,187500.0,-21679.04635418014,-43771.085890660994,-52745.24423423341,-60177.132210389645,0.0,-23854.519290270724,0.19553125,0.92296875,0.2217812499999999,192.0,0.0,0.0,0.0,0.0,0.0,0.0,0.0,0.0,0.0,1647985903.856605,0.0, 2022-03-22 22:51:43.856
248,234.0,85363.97193240785,115115.70842453344,0.0,-187500.02235174447,-41996.715008820895,-52051.75901076305,-48705.81462452586,-54669.23769345733,-52338.73305782474,187500.0,-22233.50372713849,-43705.88585208486,-53298.06992984652,-60514.77766213151,0.0,-24427.729776827076,0.19553125,0.92296875,0.2217812499999999,192.0,0.0,0.0,0.0,0.0,0.0,0.0,0.0,0.0,0.0,1647985903.864654,0.0, 2022-03-22 22:51:43.864
249,236.0,86508.1130275861,94292.91269694718,0.0,-187500.02235174447,-42564.02463484104,-51836.98109829201,-48700.65137155669,-53429.87816689946,-52816.300429856834,187500.0,-22293.87578891227,-44282.896135198615,-53353.45755260677,-60725.68872281179,0.0,-24137.939409964016,0.19553125,0.92296875,0.2217812499999999,192.0,0.0,0.0,0.0,0.0,0.0,0.0,0.0,0.0,0.0,1647985903.871643,0.0, 2022-03-22 22:51:43.871
250,238.0,85624.63797624565,103015.2115839972,0.0,-187500.02235174447,-41288.81291017687,-51451.56996864915,-48099.63531489793,-54338.65539296334,-51988.503573954535,187500.0,-21638.99202811623,-43402.81854901536,-52685.56507653774,-60030.32595280719,0.0,-24026.4712603654,0.19553125,0.92296875,0.2217812499999999,192.0,0.0,0.0,0.0,0.0,0.0,0.0,0.0,0.0,0.0,1647985903.878201,0.0, 2022-03-22 22:51:43.878
251,240.0,85925.51480835854,109490.55665618858,0.0,-187500.02235174447,-42825.1600653124,-52294.566010781055,-49102.46868162974,-54073.764869423496,-52837.91456674512,187500.0,-22650.184947274323,-44230.8389223622,-53707.844460945664,-60940.98072540531,0.0,-24505.580902764905,0.204,0.924,0.216,192.0,3.0,48.0,14.0,112.0,3.0,96.0,0.0,0.0,0.0,1647985903.886231,0.0, 2022-03-22 22:51:43.886
252,242.0,86352.16490652143,89846.68133815305,0.0,-187500.02235174447,-41584.28062013157,-51281.87552474446,-48024.71226748375,-53553.05863059266,-52296.13063289293,187500.0,-21686.24361589475,-43773.410472084346,-52726.20054795749,-60168.102105629696,0.0,-23853.5805170036,0.204,0.924,0.216,192.0,0.0,0.0,0.0,0.0,0.0,0.0,0.0,0.0,0.0,1647985903.89572,0.0, 2022-03-22 22:51:43.895
253,244.0,85357.78049919373,115045.68040915494,0.0,-187500.02235174447,-41978.744206278825,-52043.69003101469,-48694.3928831092,-54668.38832716803,-52338.57659561355,187500.0,-22233.749596327496,-43704.812968351005,-53291.45381348775,-60510.9331620852,0.0,-24421.40423314622,0.204,0.924,0.216,192.0,0.0,0.0,0.0,0.0,0.0,0.0,0.0,0.0,0.0,1647985903.90292,0.0, 2022-03-22 22:51:43.902
254,246.0,86531.8729319421,94417.61307926336,0.0,-187500.02235174447,-42558.68256791623,-51827.57101387632,-48703.78061578043,-53419.93164061686,-52815.62987752317,187500.0,-22293.40640227871,-44275.20713510599,-53356.58679683052,-60718.44675760827,0.0,-24144.913154234077,0.204,0.924,0.216,192.0,0.0,0.0,0.0,0.0,0.0,0.0,0.0,0.0,0.0,1647985903.908963,0.0, 2022-03-22 22:51:43.908
255,248.0,85667.32980815528,102769.92354034468,0.0,-187500.02235174447,-41270.79740414589,-51436.907224286464,-48077.596494865,-54323.09857882245,-51969.45988767861,187500.0,-21607.27490273415,-43380.86913596024,-52674.81388745474,-60003.8614873721,0.0,-24020.212771917915,0.204,0.924,0.216,192.0,0.0,0.0,0.0,0.0,0.0,0.0,0.0,0.0,0.0,1647985903.91832,0.0, 2022-03-22 22:51:43.918
256,250.0,85951.71105286015,109651.37745754451,0.0,-187500.02235174447,-42832.60319621601,-52303.171432396346,-49110.38119916692,-54091.35569230982,-52825.799921250335,187500.0,-22631.3424266985,-44218.143131511584,-53711.24192610287,-60933.53759450169,0.0,-24509.581865022406,0.21,0.922,0.216,192.0,3.0,72.0,14.0,104.0,3.0,96.0,0.0,0.0,0.0,1647985903.924966,0.0, 2022-03-22 22:51:43.924
257,252.0,86405.36205832506,89773.90405820656,0.0,-187500.02235174447,-41597.825777271486,-51286.971722480266,-48046.59462530549,-53552.92452012593,-52291.61558051295,187500.0,-21664.27185109518,-43762.68163474579,-52742.271452220855,-60164.324660816754,0.0,-23853.93814491489,0.21,0.922,0.216,192.0,0.0,0.0,0.0,0.0,0.0,0.0,0.0,0.0,0.0,1647985903.938431,0.0, 2022-03-22 22:51:43.938
258,254.0,85405.94850849493,114979.65335603396,0.0,-187500.02235174447,-41960.46047931439,-52042.79596123648,-48696.73981627701,-54675.76440283828,-52317.94593548131,187500.0,-22199.30555812187,-43682.93061052926,-53288.03399658609,-60499.042034034974,0.0,-24421.27012267949,0.21,0.922,0.216,192.0,0.0,0.0,0.0,0.0,0.0,0.0,0.0,0.0,0.0,1647985903.946721,0.0, 2022-03-22 22:51:43.946
259,0.0,86570.72026380543,94562.20651414472,0.0,-187500.02235174447,-42574.75347217959,-51846.54764491888,-48712.40838914018,-53432.560376234105,-52806.64447625214,187500.0,-22278.587195704844,-44268.88159142513,-53360.14072419891,-60725.48755711169,0.0,-24148.712950791472,0.21,0.922,0.216,192.0,0.0,0.0,0.0,0.0,0.0,0.0,0.0,0.0,0.0,1647985903.953643,0.0, 2022-03-22 22:51:43.953
260,2.0,85716.70481165705,102587.17567767808,0.0,-187500.02235174447,-41280.98979961751,-51452.97812854983,-48083.98909377922,-54330.22878530369,-51963.693137609145,187500.0,-21586.644242601906,-43379.90801094866,-52675.68560548849,-60010.879935131066,0.0,-24012.523771825287,0.21,0.922,0.216,192.0,0.0,0.0,0.0,0.0,0.0,0.0,0.0,0.0,0.0,1647985903.962607,0.0, 2022-03-22 22:51:43.962
261,4.0,85974.33101824892,109787.03019464375,0.0,-187500.02235174447,-42820.98028909925,-52321.7010285498,-49127.65909763087,-54114.15447165424,-52813.81938622229,187500.0,-22607.627225831417,-44208.95656454046,-53716.98632442788,-60935.77276894722,0.0,-24513.47106855763,0.204,0.93,0.212,192.0,3.0,48.0,14.5,8.0,3.0,80.0,0.0,0.0,0.0,1647985903.969191,0.0, 2022-03-22 22:51:43.969
262,6.0,86429.32312838115,89720.5280924473,0.0,-187500.02235174447,-41601.871443017895,-51301.88033603196,-48051.10967768546,-53555.89730213849,-52297.18116488233,187500.0,-21656.40403704692,-43773.388120339885,-52742.49496966541,-60177.04280341182,0.0,-23856.28507808269,0.204,0.93,0.212,192.0,0.0,0.0,0.0,0.0,0.0,0.0,0.0,0.0,0.0,1647985903.978734,0.0, 2022-03-22 22:51:43.978
263,8.0,85422.2652819473,114921.56117219463,0.0,-187500.02235174447,-41955.766612978776,-52042.03600192499,-48689.67666502913,-54685.48741167634,-52312.53681332312,187500.0,-22181.15594162416,-43684.338770429946,-53274.86881910191,-60499.35495845735,0.0,-24417.53738135545,0.204,0.93,0.212,192.0,0.0,0.0,0.0,0.0,0.0,0.0,0.0,0.0,0.0,1647985903.984886,0.0, 2022-03-22 22:51:43.984
264,10.0,86581.02441799932,94704.83299551404,0.0,-187500.02235174447,-42582.8001001835,-51859.95869159207,-48734.38015393975,-53445.47968452927,-52812.522985043885,187500.0,-22268.21598627758,-44271.27322808185,-53353.65871830687,-60727.85684202395,0.0,-24152.535099093333,0.204,0.93,0.212,192.0,0.0,0.0,0.0,0.0,0.0,0.0,0.0,0.0,0.0,1647985903.990955,0.0, 2022-03-22 22:51:43.990
265,12.0,85730.85346589726,102410.73100694788,0.0,-187500.02235174447,-41273.18904080261,-51444.640927868,-48069.05812848308,-54311.29685775004,-51968.7669836005,187500.0,-21571.84738777249,-43377.80694696986,-52654.58555872268,-60005.9625513509,0.0,-24006.89113222255,0.204,0.93,0.212,192.0,0.0,0.0,0.0,0.0,0.0,0.0,0.0,0.0,0.0,1647985903.998859,0.0, 2022-03-22 22:51:43.998
266,14.0,85969.25717225757,109940.31845811826,0.0,-187500.02235174447,-42826.858797891,-52320.091702949016,-49127.32382146405,-54117.3731228558,-52812.1653571326,187500.0,-22601.458144361757,-44203.0333522598,-53696.28860906227,-60932.17413808992,0.0,-24510.94532143418,0.198,0.932,0.22,192.0,3.0,24.0,14.5,16.0,3.0,112.0,0.0,0.0,0.0,1647985904.008691,0.0, 2022-03-22 22:51:44.008
267,16.0,86437.12388719605,89718.31526974622,0.0,-187500.02235174447,-41633.63327188889,-51314.77729258267,-48076.70242508679,-53555.78554341621,-52308.71466502127,187500.0,-21659.95796441531,-43783.51346057814,-52745.22188248896,-60190.29738787382,0.0,-23852.55233675865,0.198,0.932,0.22,192.0,0.0,0.0,0.0,0.0,0.0,0.0,0.0,0.0,0.0,1647985904.014738,0.0, 2022-03-22 22:51:44.014
268,18.0,85427.89792155003,114915.90618084744,0.0,-187500.02235174447,-41954.96195017838,-52032.49180704258,-48681.56298179185,-54683.58751339764,-52307.082987676025,187500.0,-22167.05199087286,-43678.23674419365,-53262.53065616258,-60497.030377034,0.0,-24409.33429114036,0.198,0.932,0.22,192.0,0.0,0.0,0.0,0.0,0.0,0.0,0.0,0.0,0.0,1647985904.021413,0.0, 2022-03-22 22:51:44.021
269,20.0,86586.74646457988,94891.47006171584,0.0,-187500.02235174447,-42587.71748396367,-51860.45042997008,-48735.22952022905,-53449.01126015321,-52810.19840362053,187500.0,-22267.254861266003,-44274.58128626124,-53366.779192302136,-60737.28927818409,0.0,-24148.93646823603,0.198,0.932,0.22,192.0,0.0,0.0,0.0,0.0,0.0,0.0,0.0,0.0,0.0,1647985904.02935,0.0, 2022-03-22 22:51:44.029
270,22.0,85748.22077133904,102262.15896155346,0.0,-187500.02235174447,-41276.85472689328,-51433.59916610708,-48080.099890244,-54303.496098935146,-51957.43464916166,187500.0,-21559.53157657761,-43382.50081330548,-52651.32220403221,-60007.28130427376,0.0,-24002.689004264957,0.198,0.932,0.22,192.0,0.0,0.0,0.0,0.0,0.0,0.0,0.0,0.0,0.0,1647985904.037492,0.0, 2022-03-22 22:51:44.037
271,24.0,85974.35336999338,110099.93226527362,0.0,-187500.02235174447,-42825.27182403467,-52309.98871445522,-49125.22275748525,-54119.80946300143,-52796.943819158536,187500.0,-22591.3328041235,-44199.25590744685,-53685.38095776808,-60931.25771656725,0.0,-24506.89965568777,0.196,0.916,0.218,192.0,3.0,16.0,14.0,80.0,3.0,104.0,0.0,0.0,0.0,1647985904.045569,0.0, 2022-03-22 22:51:44.045
272,26.0,86452.2560181923,89689.34740893214,0.0,-187500.02235174447,-41648.09485055147,-51302.59559185453,-48060.11743070095,-53527.19766225787,-52300.28805736161,187500.0,-21659.75679871521,-43784.29577163408,-52741.57854814274,-60193.7619082644,0.0,-23851.85943268054,0.196,0.916,0.218,192.0,0.0,0.0,0.0,0.0,0.0,0.0,0.0,0.0,0.0,1647985904.05263,0.0, 2022-03-22 22:51:44.052
273,28.0,85441.8677618346,114845.43113057983,0.0,-187500.02235174447,-41939.2486738263,-52010.16241433173,-48657.5348565024,-54656.63130958454,-52289.9391996788,187500.0,-22157.95483087955,-43672.73821505764,-53268.14094402087,-60486.882685051285,0.0,-24409.22253241808,0.196,0.916,0.218,192.0,0.0,0.0,0.0,0.0,0.0,0.0,0.0,0.0,0.0,1647985904.065986,0.0, 2022-03-22 22:51:44.065
274,30.0,86583.57251686722,95068.83115396871,0.0,-187500.02235174447,-42601.79908297052,-51853.94607233359,-48719.53859562142,-53425.29605928613,-52799.46956628199,187500.0,-22275.323841014368,-44275.27419033936,-53378.156230229884,-60741.87138579743,0.0,-24153.540927593825,0.196,0.916,0.218,192.0,0.0,0.0,0.0,0.0,0.0,0.0,0.0,0.0,0.0,1647985904.073781,0.0, 2022-03-22 22:51:44.073
275,32.0,85754.30044583089,102122.68407615232,0.0,-187500.02235174447,-41280.69922693959,-51419.18229093341,-48060.095078956496,-54280.54085737954,-51954.28305319346,187500.0,-21566.997059225687,-43388.26756337495,-52658.38535528009,-60010.58936245315,0.0,-23997.101068151125,0.196,0.916,0.218,192.0,0.0,0.0,0.0,0.0,0.0,0.0,0.0,0.0,0.0,1647985904.081591,0.0, 2022-03-22 22:51:44.081
276,34.0,85970.15124203578,110268.82204637791,0.0,-187500.02235174447,-42820.9579373548,-52306.12186266445,-49094.15383269237,-54108.47712856259,-52782.88457189615,187500.0,-22594.79732451407,-44193.489157377386,-53703.10589112114,-60928.44139676588,0.0,-24509.71597548914,0.194,0.916,0.222,192.0,3.0,8.0,14.0,80.0,3.0,120.0,0.0,0.0,0.0,1647985904.088756,0.0, 2022-03-22 22:51:44.088
277,36.0,86477.17821325996,89614.73728594033,0.0,-187500.02235174447,-41647.04431856208,-51287.82108876957,-48049.47800034023,-53501.94019102338,-52279.97032165174,187500.0,-21656.627554491468,-43773.18695463979,-52746.51828366736,-60181.98253893644,0.0,-23861.314220585136,0.194,0.916,0.222,192.0,0.0,0.0,0.0,0.0,0.0,0.0,0.0,0.0,0.0,1647985904.09612,0.0, 2022-03-22 22:51:44.096
278,38.0,85436.25747397632,114764.27194646264,0.0,-187500.02235174447,-41934.93478714643,-52004.663885195725,-48646.67190869712,-54659.91701601947,-52267.94508313479,187500.0,-22148.85767088624,-43658.83543000644,-53253.34408919145,-60475.46094363463,0.0,-24407.568503328384,0.194,0.916,0.222,192.0,0.0,0.0,0.0,0.0,0.0,0.0,0.0,0.0,0.0,1647985904.104249,0.0, 2022-03-22 22:51:44.104
279,40.0,86582.56668836674,95206.33908585776,0.0,-187500.02235174447,-42605.62123127237,-51861.54566544839,-48728.54634863691,-53437.25424256972,-52797.45790928101,187500.0,-22287.416134764688,-44273.039015893824,-53384.459422166285,-60745.4923683992,0.0,-24165.34264866622,0.194,0.916,0.222,192.0,0.0,0.0,0.0,0.0,0.0,0.0,0.0,0.0,0.0,1647985904.112466,0.0, 2022-03-22 22:51:44.112
280,42.0,85755.8874196872,101951.38030664688,0.0,-187500.02235174447,-41277.07824433783,-51410.97920071831,-48047.46634333925,-54271.95778750871,-51949.70094558012,187500.0,-21568.56168133756,-43386.01003718496,-52662.34161404868,-60007.03543508476,0.0,-23996.765791984297,0.194,0.916,0.222,192.0,0.0,0.0,0.0,0.0,0.0,0.0,0.0,0.0,0.0,1647985904.119297,0.0, 2022-03-22 22:51:44.119
281,44.0,85960.38352970881,110410.82267890248,0.0,-187500.02235174447,-42811.19022502783,-52303.05967367407,-49091.42691986882,-54114.020361187504,-52775.39673750362,187500.0,-22601.301682150566,-44186.5824683407,-53695.23807707287,-60925.02157986422,0.0,-24515.907408703257,0.196,0.919,0.224,192.0,3.0,24.0,14.0,104.0,3.5,8.0,0.0,0.0,0.0,1647985904.126648,0.0, 2022-03-22 22:51:44.126
282,46.0,86476.41825394849,89549.26902643073,0.0,-187500.02235174447,-41656.36499599993,-51296.91824876288,-48054.79771552059,-53502.54368812367,-52281.46788853024,187500.0,-21666.439970307347,-43780.40656809886,-52756.42010646107,-60184.15065814861,0.0,-23855.05573213765,0.196,0.919,0.224,192.0,0.0,0.0,0.0,0.0,0.0,0.0,0.0,0.0,0.0,1647985904.135348,0.0, 2022-03-22 22:51:44.135
283,48.0,85438.26913097729,114684.90090190184,0.0,-187500.02235174447,-41915.77934214823,-51994.20326879064,-48639.67581268261,-54661.347527664606,-52253.46115272775,187500.0,-22140.453414971045,-43655.21444740468,-53238.39077215085,-60466.36378364132,0.0,-24398.53839856844,0.196,0.919,0.224,192.0,0.0,0.0,0.0,0.0,0.0,0.0,0.0,0.0,0.0,1647985904.142073,0.0, 2022-03-22 22:51:44.142
284,50.0,86587.99816226937,95337.76734325498,0.0,-187500.02235174447,-42607.454074317706,-51868.78763065191,-48723.07017124536,-53438.19301583684,-52785.25385680841,187500.0,-22285.31507078589,-44273.10607112719,-53376.65866335138,-60742.966621275744,0.0,-24167.3543056672,0.196,0.919,0.224,192.0,0.0,0.0,0.0,0.0,0.0,0.0,0.0,0.0,0.0,1647985904.148624,0.0, 2022-03-22 22:51:44.148
285,52.0,85783.46947234505,101755.73548742956,0.0,-187500.02235174447,-41266.59527618829,-51413.281430397205,-48046.70638402777,-54272.7624503091,-51925.47165459057,187500.0,-21544.287686859094,-43377.89635394768,-52638.447599225954,-59999.32408324767,0.0,-23988.38388781356,0.196,0.919,0.224,192.0,0.0,0.0,0.0,0.0,0.0,0.0,0.0,0.0,0.0,1647985904.156512,0.0, 2022-03-22 22:51:44.156
286,54.0,85972.11819554785,110542.38504676642,0.0,-187500.02235174447,-42795.58870739803,-52307.88765047642,-49094.98084723722,-54133.89106200828,-52749.13343776864,187500.0,-22577.966460939224,-44175.67481704651,-53681.98349261088,-60918.8301466501,0.0,-24514.454545313663,0.198,0.9205,0.225,192.0,3.0,32.0,14.0,104.0,3.5,8.0,0.0,0.0,0.0,1647985904.164491,0.0, 2022-03-22 22:51:44.164
287,56.0,86499.14997805953,89488.9193164014,0.0,-187500.02235174447,-41661.30473152456,-51302.66264708789,-48053.12133468644,-53488.03740597217,-52277.19870533928,187500.0,-21660.38264755996,-43786.79916701307,-52744.10429526619,-60192.01847219688,0.0,-23860.37544731801,0.198,0.9205,0.225,192.0,0.0,0.0,0.0,0.0,0.0,0.0,0.0,0.0,0.0,1647985904.171622,0.0, 2022-03-22 22:51:44.171
288,58.0,85449.17678227149,114611.54247659953,0.0,-187500.02235174447,-41908.82794962263,-51981.373367473294,-48626.01889682042,-54652.65269907149,-52239.73718163218,187500.0,-22124.20369675204,-43647.838371734426,-53220.41996960878,-60455.858463747325,0.0,-24393.375145599264,0.198,0.9205,0.225,192.0,0.0,0.0,0.0,0.0,0.0,0.0,0.0,0.0,0.0,1647985904.186141,0.0, 2022-03-22 22:51:44.186
289,60.0,86589.92041229253,95494.45307188667,0.0,-187500.02235174447,-42614.87485347687,-51869.83816264131,-48734.55896789539,-53436.49428325824,-52787.91371439859,187500.0,-22288.466666754088,-44279.56572527477,-53386.71694835627,-60749.35922018996,0.0,-24170.05886674629,0.198,0.9205,0.225,192.0,0.0,0.0,0.0,0.0,0.0,0.0,0.0,0.0,0.0,1647985904.194391,0.0, 2022-03-22 22:51:44.194
290,62.0,85794.89121376172,101553.87688325367,0.0,-187500.02235174447,-41263.35427324227,-51398.21635463433,-48026.679220995815,-54246.58855755193,-51929.67378254817,187500.0,-21540.30907634605,-43387.39584534119,-52636.927680603,-59995.12195529008,0.0,-23983.399448800024,0.198,0.9205,0.225,192.0,0.0,0.0,0.0,0.0,0.0,0.0,0.0,0.0,0.0,1647985904.20216,0.0, 2022-03-22 22:51:44.202
291,64.0,85964.7868233665,110685.21269383584,0.0,-187500.02235174447,-42800.50609117819,-52299.37163583894,-49081.01100695265,-54129.42071311721,-52749.44636219101,187500.0,-22581.118056907424,-44175.69716879096,-53687.41496651351,-60912.9739896028,0.0,-24516.309740103454,0.198,0.92225,0.2235,192.0,3.0,24.0,14.0,112.0,3.0,120.0,0.0,0.0,0.0,1647985904.208799,0.0, 2022-03-22 22:51:44.208
292,66.0,86508.56006247521,89425.9544522708,0.0,-187500.02235174447,-41674.60401947547,-51303.757882566206,-48056.42939286583,-53482.38241462498,-52278.20453383977,187500.0,-21663.0648568946,-43792.25299266016,-52753.87200759316,-60199.03691995584,0.0,-23857.581479261095,0.198,0.92225,0.2235,192.0,0.0,0.0,0.0,0.0,0.0,0.0,0.0,0.0,0.0,1647985904.217118,0.0, 2022-03-22 22:51:44.217
293,68.0,85450.3167212387,114526.67290290272,0.0,-187500.02235174447,-41891.41594069194,-51977.90884708272,-48618.55341417235,-54660.520513119765,-52233.03165829559,187500.0,-22119.018092038405,-43640.46229606418,-53213.043893938535,-60451.99161195655,0.0,-24389.01655543048,0.198,0.92225,0.2235,192.0,0.0,0.0,0.0,0.0,0.0,0.0,0.0,0.0,0.0,1647985904.224013,0.0, 2022-03-22 22:51:44.224
294,70.0,86594.05548501677,95647.45076268323,0.0,-187500.02235174447,-42622.45209484722,-51868.474706229536,-48728.59105212582,-53435.063771613095,-52793.2110778345,187500.0,-22301.989472149548,-44285.8018619778,-53406.542945688125,-60761.51856917365,0.0,-24171.73524758044,0.198,0.92225,0.2235,192.0,0.0,0.0,0.0,0.0,0.0,0.0,0.0,0.0,0.0,1647985904.231412,0.0, 2022-03-22 22:51:44.231
295,72.0,85803.34017316582,101458.72550710745,0.0,-187500.02235174447,-41255.01707256044,-51384.26886609422,-48028.04267740759,-54241.51471156058,-51923.68351503414,187500.0,-21538.520936789624,-43380.24328711549,-52643.29792777276,-59984.43782144044,0.0,-23974.59286148463,0.198,0.92225,0.2235,192.0,0.0,0.0,0.0,0.0,0.0,0.0,0.0,0.0,0.0,1647985904.238644,0.0, 2022-03-22 22:51:44.238
296,74.0,85960.69645413119,110841.83136723416,0.0,-187500.02235174447,-42796.50512892069,-52298.008179427175,-49089.10233844547,-54136.23799517608,-52744.77484759985,187500.0,-22582.749734252666,-44165.59418029716,-53692.04177761576,-60904.07799530959,0.0,-24514.208676124654,0.201,0.923125,0.22175,192.0,3.0,48.0,14.0,112.0,3.0,112.0,0.0,0.0,0.0,1647985904.248029,0.0, 2022-03-22 22:51:44.248
297,76.0,86513.87977765559,89405.99434447222,0.0,-187500.02235174447,-41691.54664177259,-51307.62473435697,-48078.8481925545,-53479.34257737906,-52289.670978745344,187500.0,-21676.09592391204,-43795.985733984206,-52767.90890311109,-60196.37706236566,0.0,-23855.078083882105,0.201,0.923125,0.22175,192.0,0.0,0.0,0.0,0.0,0.0,0.0,0.0,0.0,0.0,1647985904.25427,0.0, 2022-03-22 22:51:44.254
298,78.0,85456.48580270837,114467.6642975407,0.0,-187500.02235174447,-41881.581173131606,-51965.03424227647,-48608.09279776726,-54652.27271941576,-52227.13079775939,187500.0,-22112.55843789082,-43626.85008369089,-53218.63183005236,-60431.740931480046,0.0,-24378.39947681421,0.201,0.923125,0.22175,192.0,0.0,0.0,0.0,0.0,0.0,0.0,0.0,0.0,0.0,1647985904.26113,0.0, 2022-03-22 22:51:44.261
299,80.0,86571.79314753928,95850.09167791506,0.0,-187500.02235174447,-42621.73683902465,-51884.03152037043,-48729.50747364849,-53454.12980963347,-52803.20230760602,187500.0,-22310.684300742665,-44291.09922541371,-53412.3096957576,-60765.7430488757,0.0,-24170.99764001341,0.201,0.923125,0.22175,192.0,0.0,0.0,0.0,0.0,0.0,0.0,0.0,0.0,0.0,1647985904.269158,0.0, 2022-03-22 22:51:44.269
300,82.0,85809.66571684668,101300.51985985278,0.0,-187500.02235174447,-41242.120116009726,-51371.26015082123,-48014.13989235638,-54218.55947000498,-51933.071247705375,187500.0,-21543.81830022553,-43387.17232789664,-52631.42915146699,-59980.14628650502,0.0,-23967.864986403583,0.201,0.923125,0.22175,192.0,0.0,0.0,0.0,0.0,0.0,0.0,0.0,0.0,0.0,1647985904.277029,0.0, 2022-03-22 22:51:44.277
301,84.0,85942.12215448882,111014.4091861736,0.0,-187500.02235174447,-42781.06007350208,-52291.5932287685,-49084.02849245411,-54134.89689050876,-52741.57854814274,187500.0,-22585.253129631656,-44170.28804663278,-53680.24005654336,-60902.62513192,0.0,-24510.40887956725,0.2015,0.9225625,0.2178749999999999,192.0,3.0,40.0,14.0,104.0,3.0,88.0,0.0,0.0,0.0,1647985904.28375,0.0, 2022-03-22 22:51:44.283
302,86.0,86511.37638227659,89383.15086163889,0.0,-187500.02235174447,-41688.77502546013,-51302.28266743216,-48060.028023723135,-53454.48743754476,-52289.78273746762,187500.0,-21678.10758091302,-43806.33459166701,-52751.99446105892,-60197.315835632784,0.0,-23852.48528152529,0.2015,0.9225625,0.2178749999999999,192.0,0.0,0.0,0.0,0.0,0.0,0.0,0.0,0.0,0.0,1647985904.291984,0.0, 2022-03-22 22:51:44.291
303,88.0,85447.38864271506,114397.79274437342,0.0,-187500.02235174447,-41848.43353610439,-51950.77382931398,-48582.50005036593,-54638.50404483129,-52215.17261447581,187500.0,-22104.93649303156,-43635.65667100628,-53200.9068966993,-60429.148129123234,0.0,-24376.320764579865,0.2015,0.9225625,0.2178749999999999,192.0,0.0,0.0,0.0,0.0,0.0,0.0,0.0,0.0,0.0,1647985904.298876,0.0, 2022-03-22 22:51:44.298
304,90.0,86577.96222900895,96026.04461026724,0.0,-187500.02235174447,-42618.69700177872,-51884.21033432608,-48731.63088937174,-53443.0656961281,-52793.70281621251,187500.0,-22313.813544966408,-44299.21290865099,-53394.54005891563,-60768.67112739934,0.0,-24179.69246860653,0.2015,0.9225625,0.2178749999999999,192.0,0.0,0.0,0.0,0.0,0.0,0.0,0.0,0.0,0.0,1647985904.313411,0.0, 2022-03-22 22:51:44.313
305,92.0,85820.77453384096,101046.35817365148,0.0,-187500.02235174447,-41240.35432819776,-51376.6245694905,-48012.91054641135,-54221.755769462085,-51916.12862540825,187500.0,-21527.25565758415,-43390.03335118692,-52623.71779962991,-59979.74395510483,0.0,-23962.232346800847,0.2015,0.9225625,0.2178749999999999,192.0,0.0,0.0,0.0,0.0,0.0,0.0,0.0,0.0,0.0,1647985904.32129,0.0, 2022-03-22 22:51:44.321
306,94.0,85937.51769513103,111191.32324353736,0.0,-187500.02235174447,-42774.01927399865,-52295.281266603626,-49074.9313324608,-54146.98918425908,-52720.56790835475,187500.0,-22573.36200158143,-44163.560171551726,-53682.18465831097,-60896.94778882835,0.0,-24507.79372546598,0.20175,0.92228125,0.2189375,192.0,3.0,40.0,14.0,104.0,3.0,112.0,0.0,0.0,0.0,1647985904.329368,0.0, 2022-03-22 22:51:44.329
307,96.0,86529.99538540786,89356.30641654808,0.0,-187500.02235174447,-41694.921755185336,-51305.74718782272,-48065.77242204815,-53447.13371361896,-52287.368749066445,187500.0,-21683.58375830457,-43817.510463894665,-52773.36272875818,-60207.329417148765,0.0,-23850.764197202232,0.20175,0.92228125,0.2189375,192.0,0.0,0.0,0.0,0.0,0.0,0.0,0.0,0.0,0.0,1647985904.336577,0.0, 2022-03-22 22:51:44.336
308,98.0,85460.64322717706,114281.78719065036,0.0,-187500.02235174447,-41831.98265218528,-51934.70292505061,-48566.1162216802,-54631.23972788331,-52189.356349629925,187500.0,-22084.17172243258,-43617.641164975306,-53181.84085867892,-60407.9586753796,0.0,-24364.96607839657,0.20175,0.92228125,0.2189375,192.0,0.0,0.0,0.0,0.0,0.0,0.0,0.0,0.0,0.0,1647985904.344085,0.0, 2022-03-22 22:51:44.344
